Elapsed Time,FP1,FP2,O1,O2,
00:00:00,39.9169921875,29.296875,20.8740234375,67.0166015625,
00:00:00.002,39.1845703125,28.9306640625,18.6767578125,65.5517578125,
00:00:00.0041,36.9873046875,29.6630859375,23.8037109375,75.439453125,
00:00:00.0062,29.296875,31.1279296875,21.97265625,74.3408203125,
00:00:00.0083,26.7333984375,29.6630859375,17.2119140625,71.4111328125,
00:00:00.0104,26.0009765625,24.90234375,19.04296875,73.2421875,
00:00:00.0124,28.1982421875,21.6064453125,21.6064453125,68.4814453125,
00:00:00.0145,34.7900390625,23.0712890625,22.3388671875,75.0732421875,
00:00:00.0166,36.9873046875,23.0712890625,23.8037109375,72.1435546875,
00:00:00.0187,31.8603515625,20.1416015625,32.2265625,78.7353515625,
00:00:00.0208,24.169921875,18.310546875,34.7900390625,86.0595703125,
00:00:00.0229,21.6064453125,20.8740234375,28.9306640625,83.49609375,
00:00:00.0249,15.7470703125,17.2119140625,28.1982421875,82.763671875,
00:00:00.027,7.32421875,6.2255859375,27.83203125,76.5380859375,
00:00:00.0291,14.2822265625,10.25390625,33.69140625,78.369140625,
00:00:00.0312,20.8740234375,10.986328125,36.62109375,75.8056640625,
00:00:00.0333,26.7333984375,12.8173828125,32.958984375,67.0166015625,
00:00:00.0354,36.2548828125,22.705078125,32.2265625,71.044921875,
00:00:00.0374,26.0009765625,18.6767578125,27.83203125,76.171875,
00:00:00.0395,20.5078125,19.4091796875,24.5361328125,76.5380859375,
00:00:00.0416,21.97265625,24.169921875,28.1982421875,79.833984375,
00:00:00.0437,20.1416015625,19.4091796875,23.0712890625,67.0166015625,
00:00:00.0458,26.3671875,23.8037109375,21.240234375,64.453125,
00:00:00.0479,29.296875,23.8037109375,25.634765625,65.5517578125,
00:00:00.0499,25.2685546875,20.1416015625,29.6630859375,61.1572265625,
00:00:00.052,29.6630859375,22.705078125,32.2265625,67.3828125,
00:00:00.0541,31.1279296875,26.0009765625,30.76171875,72.8759765625,
00:00:00.0562,23.0712890625,23.8037109375,28.9306640625,76.171875,
00:00:00.0583,24.90234375,29.6630859375,24.169921875,72.509765625,
00:00:00.0604,32.2265625,38.818359375,20.5078125,65.185546875,
00:00:00.0624,39.9169921875,43.5791015625,20.5078125,58.2275390625,
00:00:00.0645,32.5927734375,31.1279296875,24.5361328125,53.8330078125,
00:00:00.0666,32.2265625,27.83203125,29.6630859375,62.6220703125,
00:00:00.0687,35.5224609375,31.494140625,27.83203125,63.3544921875,
00:00:00.0708,30.029296875,29.6630859375,25.634765625,58.59375,
00:00:00.0729,20.8740234375,26.3671875,29.6630859375,55.2978515625,
00:00:00.0749,16.845703125,24.169921875,27.83203125,61.1572265625,
00:00:00.077,17.9443359375,22.3388671875,27.83203125,59.6923828125,
00:00:00.0791,20.1416015625,21.97265625,32.2265625,55.2978515625,
00:00:00.0812,26.7333984375,24.169921875,33.69140625,50.537109375,
00:00:00.0833,26.0009765625,22.3388671875,32.2265625,40.6494140625,
00:00:00.0854,25.634765625,21.97265625,34.7900390625,48.33984375,
00:00:00.0874,30.029296875,30.76171875,32.2265625,54.931640625,
00:00:00.0895,29.296875,34.7900390625,24.169921875,50.1708984375,
00:00:00.0916,22.3388671875,31.1279296875,20.5078125,43.212890625,
00:00:00.0937,19.4091796875,27.83203125,22.3388671875,31.1279296875,
00:00:00.0958,28.1982421875,32.958984375,24.169921875,29.6630859375,
00:00:00.0979,38.0859375,35.888671875,24.5361328125,26.7333984375,
00:00:00.0999,40.283203125,35.888671875,25.2685546875,28.9306640625,
00:00:00.102,35.5224609375,35.5224609375,27.83203125,32.958984375,
00:00:00.1041,35.15625,37.353515625,31.1279296875,36.9873046875,
00:00:00.1062,34.7900390625,41.015625,28.564453125,26.7333984375,
00:00:00.1083,28.1982421875,38.4521484375,28.9306640625,26.7333984375,
00:00:00.1104,28.1982421875,36.2548828125,29.296875,16.4794921875,
00:00:00.1124,28.1982421875,33.3251953125,31.494140625,12.8173828125,
00:00:00.1145,34.7900390625,32.2265625,27.83203125,5.126953125,
00:00:00.1166,29.296875,30.029296875,23.0712890625,6.591796875,
00:00:00.1187,21.6064453125,22.3388671875,25.2685546875,3.2958984375,
00:00:00.1208,22.705078125,26.3671875,28.1982421875,11.3525390625,
00:00:00.1229,20.8740234375,29.6630859375,32.2265625,6.591796875,
00:00:00.1249,18.6767578125,28.1982421875,32.2265625,5.859375,
00:00:00.127,17.2119140625,25.2685546875,29.6630859375,6.591796875,
00:00:00.1291,17.2119140625,23.8037109375,29.6630859375,-4.7607421875,
00:00:00.1312,23.8037109375,25.634765625,27.83203125,-14.2822265625,
00:00:00.1333,26.7333984375,24.90234375,26.7333984375,-15.7470703125,
00:00:00.1354,25.2685546875,21.97265625,30.029296875,-10.6201171875,
00:00:00.1374,24.5361328125,23.0712890625,27.4658203125,-10.986328125,
00:00:00.1395,22.3388671875,26.7333984375,22.3388671875,-10.25390625,
00:00:00.1416,21.240234375,29.296875,21.97265625,-4.0283203125,
00:00:00.1437,22.705078125,32.958984375,16.845703125,-10.6201171875,
00:00:00.1458,29.6630859375,35.888671875,17.9443359375,-22.3388671875,
00:00:00.1479,27.4658203125,27.4658203125,23.0712890625,-18.6767578125,
00:00:00.1499,22.3388671875,20.8740234375,25.2685546875,-11.3525390625,
00:00:00.152,24.169921875,27.4658203125,23.8037109375,-15.0146484375,
00:00:00.1541,18.310546875,24.169921875,23.0712890625,-8.4228515625,
00:00:00.1562,10.986328125,20.5078125,21.6064453125,-13.916015625,
00:00:00.1583,10.6201171875,24.5361328125,20.8740234375,-18.310546875,
00:00:00.1604,16.4794921875,28.564453125,17.578125,-22.3388671875,
00:00:00.1624,14.2822265625,24.169921875,20.5078125,-20.5078125,
00:00:00.1645,19.04296875,23.8037109375,23.8037109375,-22.705078125,
00:00:00.1666,21.6064453125,25.634765625,24.90234375,-19.4091796875,
00:00:00.1687,20.5078125,25.2685546875,22.705078125,-21.97265625,
00:00:00.1708,14.6484375,21.240234375,23.0712890625,-10.25390625,
00:00:00.1729,13.18359375,23.8037109375,21.240234375,-13.5498046875,
00:00:00.1749,17.578125,28.1982421875,20.8740234375,-13.5498046875,
00:00:00.177,21.240234375,29.296875,25.634765625,-16.4794921875,
00:00:00.1791,29.6630859375,35.5224609375,25.2685546875,-25.634765625,
00:00:00.1812,35.15625,32.5927734375,26.0009765625,-31.494140625,
00:00:00.1833,35.5224609375,30.029296875,26.3671875,-38.0859375,
00:00:00.1854,35.15625,31.494140625,28.1982421875,-25.2685546875,
00:00:00.1874,35.5224609375,32.958984375,20.5078125,-20.8740234375,
00:00:00.1895,32.5927734375,33.3251953125,13.18359375,-30.3955078125,
00:00:00.1916,29.296875,29.6630859375,15.7470703125,-31.8603515625,
00:00:00.1937,29.6630859375,28.9306640625,18.310546875,-29.6630859375,
00:00:00.1958,38.818359375,35.888671875,16.4794921875,-36.2548828125,
00:00:00.1979,45.7763671875,36.62109375,25.634765625,-36.62109375,
00:00:00.1999,41.015625,32.5927734375,34.7900390625,-31.8603515625,
00:00:00.202,38.0859375,32.958984375,28.1982421875,-32.2265625,
00:00:00.2041,42.8466796875,41.748046875,18.310546875,-21.97265625,
00:00:00.2062,36.62109375,40.6494140625,17.2119140625,-23.0712890625,
00:00:00.2083,31.8603515625,36.9873046875,18.6767578125,-31.1279296875,
00:00:00.2104,34.423828125,39.1845703125,19.04296875,-31.494140625,
00:00:00.2124,33.69140625,36.9873046875,21.6064453125,-31.8603515625,
00:00:00.2145,32.958984375,30.029296875,26.0009765625,-24.169921875,
00:00:00.2166,28.564453125,24.169921875,23.8037109375,-21.6064453125,
00:00:00.2187,30.029296875,27.83203125,20.8740234375,-14.2822265625,
00:00:00.2208,34.7900390625,32.958984375,23.8037109375,-6.9580078125,
00:00:00.2229,27.4658203125,32.5927734375,25.634765625,-5.126953125,
00:00:00.2249,20.5078125,30.76171875,26.3671875,-7.32421875,
00:00:00.227,21.97265625,30.029296875,26.7333984375,-15.380859375,
00:00:00.2291,17.2119140625,20.8740234375,26.0009765625,-17.2119140625,
00:00:00.2312,16.4794921875,12.8173828125,27.4658203125,-10.6201171875,
00:00:00.2333,18.6767578125,11.3525390625,29.296875,-6.2255859375,
00:00:00.2354,17.9443359375,11.71875,30.76171875,3.662109375,
00:00:00.2374,16.4794921875,12.8173828125,32.5927734375,5.859375,
00:00:00.2395,10.986328125,12.8173828125,33.69140625,13.18359375,
00:00:00.2416,8.056640625,10.986328125,32.2265625,9.8876953125,
00:00:00.2437,11.71875,10.6201171875,31.494140625,8.4228515625,
00:00:00.2458,19.04296875,15.7470703125,28.1982421875,11.71875,
00:00:00.2479,24.5361328125,17.578125,27.83203125,10.986328125,
00:00:00.2499,24.5361328125,15.7470703125,28.564453125,6.591796875,
00:00:00.252,20.8740234375,15.380859375,29.296875,15.7470703125,
00:00:00.2541,16.4794921875,14.6484375,29.6630859375,20.8740234375,
00:00:00.2562,13.18359375,19.4091796875,27.4658203125,19.4091796875,
00:00:00.2583,19.04296875,28.1982421875,22.3388671875,11.3525390625,
00:00:00.2604,15.7470703125,23.8037109375,22.3388671875,8.4228515625,
00:00:00.2624,12.0849609375,17.9443359375,24.5361328125,5.859375,
00:00:00.2645,20.1416015625,21.6064453125,25.634765625,10.986328125,
00:00:00.2666,28.9306640625,25.634765625,22.3388671875,8.7890625,
00:00:00.2687,26.0009765625,23.0712890625,22.3388671875,4.7607421875,
00:00:00.2708,24.169921875,24.5361328125,25.634765625,13.18359375,
00:00:00.2729,20.8740234375,28.564453125,24.90234375,11.3525390625,
00:00:00.2749,22.705078125,32.5927734375,18.6767578125,2.9296875,
00:00:00.277,24.169921875,33.69140625,17.9443359375,1.0986328125,
00:00:00.2791,26.3671875,33.69140625,16.845703125,0.732421875,
00:00:00.2812,31.494140625,34.423828125,13.916015625,4.7607421875,
00:00:00.2833,28.9306640625,31.494140625,13.916015625,2.5634765625,
00:00:00.2854,26.0009765625,31.494140625,17.2119140625,6.2255859375,
00:00:00.2874,32.5927734375,39.1845703125,25.634765625,10.6201171875,
00:00:00.2895,31.1279296875,40.6494140625,26.3671875,13.18359375,
00:00:00.2916,29.296875,41.015625,18.310546875,18.6767578125,
00:00:00.2937,33.69140625,41.015625,15.7470703125,15.380859375,
00:00:00.2958,41.748046875,43.9453125,19.04296875,13.916015625,
00:00:00.2979,50.9033203125,44.3115234375,18.310546875,8.7890625,
00:00:00.2999,47.2412109375,41.748046875,15.380859375,4.7607421875,
00:00:00.302,41.015625,35.15625,15.0146484375,10.986328125,
00:00:00.3041,32.958984375,29.6630859375,15.7470703125,20.5078125,
00:00:00.3062,29.296875,32.5927734375,16.4794921875,21.6064453125,
00:00:00.3083,27.83203125,31.494140625,20.5078125,19.04296875,
00:00:00.3104,24.90234375,27.83203125,22.705078125,9.8876953125,
00:00:00.3124,24.5361328125,22.705078125,24.5361328125,5.859375,
00:00:00.3145,29.6630859375,21.6064453125,25.634765625,6.9580078125,
00:00:00.3166,34.423828125,23.8037109375,24.169921875,12.8173828125,
00:00:00.3187,32.958984375,23.0712890625,25.634765625,15.0146484375,
00:00:00.3208,28.9306640625,21.240234375,20.8740234375,10.25390625,
00:00:00.3229,26.7333984375,24.5361328125,15.380859375,9.521484375,
00:00:00.3249,24.90234375,22.705078125,14.2822265625,4.0283203125,
00:00:00.327,27.4658203125,21.6064453125,17.578125,10.25390625,
00:00:00.3291,28.564453125,17.578125,20.5078125,11.3525390625,
00:00:00.3312,29.296875,11.3525390625,19.4091796875,5.859375,
00:00:00.3333,29.296875,10.986328125,21.6064453125,8.056640625,
00:00:00.3354,26.7333984375,10.986328125,23.0712890625,20.8740234375,
00:00:00.3374,23.8037109375,11.3525390625,21.97265625,20.5078125,
00:00:00.3395,14.6484375,8.7890625,20.5078125,15.7470703125,
00:00:00.3416,4.0283203125,1.0986328125,24.169921875,16.845703125,
00:00:00.3437,-3.2958984375,-6.2255859375,27.83203125,17.9443359375,
00:00:00.3458,-6.591796875,-11.3525390625,34.7900390625,15.0146484375,
00:00:00.3479,-3.662109375,-13.18359375,38.4521484375,12.8173828125,
00:00:00.3499,4.0283203125,-6.2255859375,38.818359375,21.6064453125,
00:00:00.352,9.8876953125,2.9296875,38.0859375,28.1982421875,
00:00:00.3541,6.591796875,4.39453125,39.1845703125,28.9306640625,
00:00:00.3562,-6.2255859375,-1.0986328125,44.3115234375,36.2548828125,
00:00:00.3583,-11.3525390625,-5.859375,42.48046875,33.3251953125,
00:00:00.3604,-7.32421875,-0.732421875,38.0859375,25.634765625,
00:00:00.3624,3.662109375,8.4228515625,35.888671875,24.169921875,
00:00:00.3645,5.126953125,6.2255859375,28.564453125,24.169921875,
00:00:00.3666,2.9296875,5.859375,20.5078125,23.8037109375,
00:00:00.3687,8.056640625,11.71875,21.6064453125,26.3671875,
00:00:00.3708,6.9580078125,13.916015625,23.0712890625,26.3671875,
00:00:00.3729,6.9580078125,20.5078125,21.240234375,31.8603515625,
00:00:00.3749,8.056640625,24.169921875,21.6064453125,31.1279296875,
00:00:00.377,7.6904296875,23.8037109375,13.18359375,16.845703125,
00:00:00.3791,10.25390625,25.2685546875,6.9580078125,12.8173828125,
00:00:00.3812,20.8740234375,30.76171875,10.6201171875,9.8876953125,
00:00:00.3833,20.8740234375,27.4658203125,15.380859375,11.71875,
00:00:00.3854,19.04296875,28.564453125,14.6484375,20.1416015625,
00:00:00.3874,13.916015625,26.7333984375,17.578125,28.564453125,
00:00:00.3895,9.521484375,28.9306640625,15.380859375,32.5927734375,
00:00:00.3916,7.6904296875,28.1982421875,17.578125,25.2685546875,
00:00:00.3937,14.6484375,30.029296875,20.8740234375,26.0009765625,
00:00:00.3958,16.4794921875,32.5927734375,19.04296875,22.3388671875,
00:00:00.3979,22.3388671875,35.15625,18.310546875,21.97265625,
00:00:00.3999,24.169921875,33.69140625,20.8740234375,22.3388671875,
00:00:00.402,21.6064453125,32.2265625,19.04296875,28.1982421875,
00:00:00.4041,20.1416015625,32.5927734375,16.845703125,31.1279296875,
00:00:00.4062,14.2822265625,32.958984375,17.578125,29.296875,
00:00:00.4083,13.18359375,32.958984375,17.578125,25.634765625,
00:00:00.4104,13.5498046875,31.494140625,17.2119140625,25.634765625,
00:00:00.4124,16.845703125,31.494140625,15.0146484375,15.0146484375,
00:00:00.4145,23.0712890625,34.423828125,13.18359375,19.04296875,
00:00:00.4166,26.0009765625,33.69140625,14.6484375,21.6064453125,
00:00:00.4187,25.634765625,32.5927734375,15.380859375,20.1416015625,
00:00:00.4208,24.169921875,32.5927734375,15.0146484375,26.7333984375,
00:00:00.4229,16.845703125,30.029296875,12.0849609375,31.8603515625,
00:00:00.4249,16.4794921875,31.494140625,11.3525390625,24.90234375,
00:00:00.427,16.4794921875,28.1982421875,10.6201171875,18.6767578125,
00:00:00.4291,14.6484375,22.3388671875,14.2822265625,17.2119140625,
00:00:00.4312,19.4091796875,19.04296875,14.6484375,21.97265625,
00:00:00.4333,19.04296875,16.4794921875,20.1416015625,31.494140625,
00:00:00.4354,13.18359375,11.3525390625,19.4091796875,28.564453125,
00:00:00.4374,13.18359375,13.916015625,13.916015625,33.3251953125,
00:00:00.4395,14.2822265625,20.8740234375,14.6484375,32.2265625,
00:00:00.4416,10.986328125,19.4091796875,19.04296875,30.029296875,
00:00:00.4437,2.197265625,10.25390625,20.1416015625,20.8740234375,
00:00:00.4458,0.732421875,5.126953125,21.240234375,20.5078125,
00:00:00.4479,4.0283203125,0.732421875,18.6767578125,15.7470703125,
00:00:00.4499,2.197265625,-1.46484375,19.4091796875,19.4091796875,
00:00:00.452,-1.0986328125,-2.5634765625,25.2685546875,22.705078125,
00:00:00.4541,-0.732421875,2.197265625,27.83203125,22.705078125,
00:00:00.4562,-9.521484375,0.732421875,27.4658203125,22.3388671875,
00:00:00.4583,-10.6201171875,0.732421875,26.0009765625,20.1416015625,
00:00:00.4604,-9.8876953125,-0.3662109375,26.0009765625,15.380859375,
00:00:00.4624,-11.3525390625,-4.39453125,28.9306640625,14.6484375,
00:00:00.4645,-6.9580078125,-4.39453125,28.564453125,17.2119140625,
00:00:00.4666,-3.2958984375,-2.197265625,27.4658203125,10.986328125,
00:00:00.4687,-2.9296875,0.732421875,25.634765625,17.9443359375,
00:00:00.4708,-0.732421875,4.39453125,24.169921875,15.0146484375,
00:00:00.4729,-5.126953125,4.39453125,27.4658203125,14.2822265625,
00:00:00.4749,-7.32421875,2.9296875,27.4658203125,19.04296875,
00:00:00.477,-4.39453125,4.7607421875,26.0009765625,13.5498046875,
00:00:00.4791,-3.662109375,4.7607421875,24.90234375,5.126953125,
00:00:00.4812,0.3662109375,3.2958984375,21.97265625,-3.662109375,
00:00:00.4833,5.126953125,4.0283203125,15.0146484375,-10.25390625,
00:00:00.4854,8.056640625,7.32421875,15.7470703125,0.3662109375,
00:00:00.4874,8.7890625,12.8173828125,17.2119140625,8.056640625,
00:00:00.4895,3.2958984375,13.5498046875,21.6064453125,8.7890625,
00:00:00.4916,4.7607421875,17.9443359375,26.7333984375,19.04296875,
00:00:00.4937,13.18359375,22.705078125,27.4658203125,9.8876953125,
00:00:00.4958,18.6767578125,24.5361328125,24.5361328125,-2.9296875,
00:00:00.4979,18.310546875,20.8740234375,25.634765625,5.859375,
00:00:00.4999,19.4091796875,21.6064453125,25.2685546875,9.521484375,
00:00:00.502,22.3388671875,27.83203125,25.634765625,14.6484375,
00:00:00.5041,22.3388671875,30.029296875,25.634765625,21.97265625,
00:00:00.5062,16.845703125,32.5927734375,19.4091796875,20.5078125,
00:00:00.5083,16.4794921875,33.3251953125,15.7470703125,21.240234375,
00:00:00.5104,17.2119140625,31.494140625,21.240234375,17.9443359375,
00:00:00.5124,19.04296875,31.1279296875,28.9306640625,24.90234375,
00:00:00.5145,27.4658203125,32.958984375,30.029296875,27.83203125,
00:00:00.5166,32.5927734375,34.7900390625,30.76171875,28.564453125,
00:00:00.5187,25.634765625,26.7333984375,32.2265625,43.9453125,
00:00:00.5208,17.2119140625,22.3388671875,24.90234375,54.931640625,
00:00:00.5229,15.0146484375,31.8603515625,19.04296875,45.41015625,
00:00:00.5249,17.9443359375,40.283203125,15.0146484375,42.48046875,
00:00:00.527,23.8037109375,45.41015625,11.3525390625,44.677734375,
00:00:00.5291,29.6630859375,47.607421875,8.7890625,38.4521484375,
00:00:00.5312,33.69140625,46.875,11.3525390625,47.9736328125,
00:00:00.5333,31.8603515625,42.48046875,13.916015625,53.466796875,
00:00:00.5354,25.634765625,36.2548828125,19.04296875,61.1572265625,
00:00:00.5374,20.8740234375,36.9873046875,18.6767578125,61.5234375,
00:00:00.5395,17.2119140625,39.1845703125,16.4794921875,67.0166015625,
00:00:00.5416,16.845703125,39.9169921875,17.9443359375,68.115234375,
00:00:00.5437,16.845703125,36.9873046875,20.8740234375,64.453125,
00:00:00.5458,17.578125,38.0859375,22.705078125,63.3544921875,
00:00:00.5479,23.0712890625,41.748046875,22.705078125,61.8896484375,
00:00:00.5499,24.169921875,43.212890625,20.8740234375,56.396484375,
00:00:00.552,17.578125,39.9169921875,17.9443359375,56.7626953125,
00:00:00.5541,10.6201171875,39.9169921875,14.2822265625,57.861328125,
00:00:00.5562,5.859375,44.677734375,17.2119140625,53.466796875,
00:00:00.5583,6.9580078125,45.7763671875,17.2119140625,58.59375,
00:00:00.5604,4.7607421875,41.748046875,14.2822265625,53.1005859375,
00:00:00.5624,3.662109375,38.0859375,16.845703125,37.353515625,
00:00:00.5645,4.39453125,35.5224609375,15.7470703125,33.69140625,
00:00:00.5666,3.2958984375,34.423828125,11.3525390625,36.9873046875,
00:00:00.5687,-0.3662109375,30.029296875,12.8173828125,34.7900390625,
00:00:00.5708,-4.0283203125,28.564453125,17.2119140625,42.48046875,
00:00:00.5729,-8.056640625,29.6630859375,18.6767578125,40.283203125,
00:00:00.5749,-6.9580078125,31.1279296875,12.8173828125,36.2548828125,
00:00:00.577,-5.126953125,32.2265625,7.32421875,21.6064453125,
00:00:00.5791,3.2958984375,38.0859375,2.9296875,10.25390625,
00:00:00.5812,12.0849609375,39.9169921875,5.859375,13.5498046875,
00:00:00.5833,13.5498046875,39.9169921875,9.521484375,21.240234375,
00:00:00.5854,12.8173828125,40.283203125,8.7890625,16.845703125,
00:00:00.5874,12.8173828125,42.48046875,8.7890625,17.578125,
00:00:00.5895,8.4228515625,44.677734375,13.5498046875,21.6064453125,
00:00:00.5916,8.056640625,46.5087890625,17.9443359375,29.296875,
00:00:00.5937,12.8173828125,48.33984375,19.4091796875,25.634765625,
00:00:00.5958,16.4794921875,50.537109375,17.578125,17.9443359375,
00:00:00.5979,23.0712890625,50.537109375,15.7470703125,15.0146484375,
00:00:00.5999,24.90234375,50.537109375,15.0146484375,10.986328125,
00:00:00.602,26.0009765625,52.734375,16.845703125,9.8876953125,
00:00:00.6041,22.705078125,53.1005859375,20.8740234375,19.04296875,
00:00:00.6062,14.6484375,51.26953125,20.5078125,13.916015625,
00:00:00.6083,11.71875,49.8046875,21.6064453125,17.2119140625,
00:00:00.6104,10.25390625,45.7763671875,22.705078125,12.8173828125,
00:00:00.6124,11.71875,44.677734375,22.3388671875,15.380859375,
00:00:00.6145,20.1416015625,47.607421875,20.8740234375,15.7470703125,
00:00:00.6166,24.90234375,49.8046875,19.04296875,8.4228515625,
00:00:00.6187,26.0009765625,50.1708984375,23.8037109375,18.6767578125,
00:00:00.6208,26.3671875,54.5654296875,26.0009765625,22.705078125,
00:00:00.6229,20.8740234375,53.1005859375,28.564453125,22.705078125,
00:00:00.6249,13.18359375,46.142578125,27.4658203125,26.7333984375,
00:00:00.627,10.6201171875,42.1142578125,26.3671875,24.169921875,
00:00:00.6291,18.310546875,47.2412109375,17.9443359375,11.71875,
00:00:00.6312,28.1982421875,52.734375,15.7470703125,9.8876953125,
00:00:00.6333,32.2265625,54.19921875,21.240234375,21.6064453125,
00:00:00.6354,25.2685546875,47.9736328125,31.494140625,28.9306640625,
00:00:00.6374,23.0712890625,46.875,29.6630859375,33.3251953125,
00:00:00.6395,21.6064453125,50.9033203125,22.705078125,33.69140625,
00:00:00.6416,20.1416015625,51.6357421875,20.8740234375,33.3251953125,
00:00:00.6437,20.8740234375,47.607421875,17.9443359375,34.7900390625,
00:00:00.6458,25.2685546875,43.9453125,14.6484375,29.296875,
00:00:00.6479,22.705078125,36.62109375,16.4794921875,21.6064453125,
00:00:00.6499,22.3388671875,35.15625,17.578125,25.634765625,
00:00:00.652,20.1416015625,32.5927734375,16.4794921875,27.4658203125,
00:00:00.6541,16.4794921875,30.029296875,18.6767578125,25.634765625,
00:00:00.6562,9.521484375,28.1982421875,18.310546875,33.3251953125,
00:00:00.6583,2.5634765625,20.1416015625,25.2685546875,39.55078125,
00:00:00.6604,5.859375,19.4091796875,31.1279296875,36.2548828125,
00:00:00.6624,5.859375,16.4794921875,30.029296875,32.958984375,
00:00:00.6645,10.6201171875,15.0146484375,30.029296875,39.9169921875,
00:00:00.6666,13.18359375,15.7470703125,30.76171875,39.55078125,
00:00:00.6687,11.71875,16.845703125,38.0859375,46.875,
00:00:00.6708,6.2255859375,12.0849609375,42.8466796875,52.734375,
00:00:00.6729,0.3662109375,13.5498046875,39.9169921875,48.33984375,
00:00:00.6749,-1.0986328125,13.916015625,36.62109375,47.9736328125,
00:00:00.677,-4.0283203125,11.3525390625,32.2265625,36.62109375,
00:00:00.6791,4.39453125,15.0146484375,32.958984375,35.5224609375,
00:00:00.6812,15.7470703125,20.1416015625,31.1279296875,32.958984375,
00:00:00.6833,21.240234375,26.3671875,33.3251953125,32.2265625,
00:00:00.6854,19.4091796875,26.3671875,34.7900390625,45.41015625,
00:00:00.6874,20.5078125,28.1982421875,35.5224609375,46.5087890625,
00:00:00.6895,14.6484375,31.8603515625,35.5224609375,49.8046875,
00:00:00.6916,9.521484375,30.029296875,31.1279296875,46.142578125,
00:00:00.6937,9.8876953125,32.2265625,25.2685546875,46.875,
00:00:00.6958,16.845703125,36.9873046875,23.0712890625,37.353515625,
00:00:00.6979,23.8037109375,38.4521484375,26.7333984375,43.5791015625,
00:00:00.6999,29.296875,41.015625,33.69140625,48.33984375,
00:00:00.702,31.8603515625,40.283203125,44.677734375,47.2412109375,
00:00:00.7041,24.169921875,35.888671875,43.9453125,49.072265625,
00:00:00.7062,16.845703125,35.888671875,33.3251953125,58.59375,
00:00:00.7083,21.6064453125,44.677734375,15.380859375,56.396484375,
00:00:00.7104,22.705078125,40.6494140625,9.521484375,49.072265625,
00:00:00.7124,27.4658203125,41.748046875,15.7470703125,43.212890625,
00:00:00.7145,35.5224609375,42.1142578125,19.04296875,41.748046875,
00:00:00.7166,35.15625,40.6494140625,22.3388671875,47.2412109375,
00:00:00.7187,33.3251953125,41.015625,20.8740234375,42.1142578125,
00:00:00.7208,35.15625,47.2412109375,19.04296875,47.9736328125,
00:00:00.7229,31.1279296875,46.5087890625,20.1416015625,47.607421875,
00:00:00.7249,28.1982421875,44.677734375,21.240234375,42.8466796875,
00:00:00.727,27.4658203125,46.142578125,19.4091796875,32.958984375,
00:00:00.7291,27.4658203125,43.212890625,20.5078125,29.296875,
00:00:00.7312,28.564453125,38.0859375,26.0009765625,28.9306640625,
00:00:00.7333,28.1982421875,35.888671875,27.4658203125,32.5927734375,
00:00:00.7354,33.3251953125,47.2412109375,22.705078125,33.3251953125,
00:00:00.7374,33.69140625,46.5087890625,17.578125,35.5224609375,
00:00:00.7395,28.564453125,39.1845703125,8.4228515625,20.8740234375,
00:00:00.7416,27.83203125,36.9873046875,17.9443359375,24.169921875,
00:00:00.7437,31.8603515625,46.142578125,30.76171875,24.5361328125,
00:00:00.7458,38.0859375,50.1708984375,36.2548828125,20.1416015625,
00:00:00.7479,39.55078125,41.748046875,36.2548828125,11.3525390625,
00:00:00.7499,36.62109375,35.5224609375,26.7333984375,12.0849609375,
00:00:00.752,36.2548828125,34.423828125,19.4091796875,11.3525390625,
00:00:00.7541,31.8603515625,31.8603515625,16.845703125,1.46484375,
00:00:00.7562,21.97265625,28.564453125,23.8037109375,0.732421875,
00:00:00.7583,16.845703125,24.90234375,27.83203125,5.859375,
00:00:00.7604,18.6767578125,22.3388671875,32.5927734375,9.8876953125,
00:00:00.7624,21.6064453125,22.705078125,35.888671875,11.3525390625,
00:00:00.7645,28.9306640625,27.4658203125,29.296875,6.9580078125,
00:00:00.7666,28.1982421875,24.169921875,26.7333984375,3.2958984375,
00:00:00.7687,22.705078125,17.578125,28.564453125,1.0986328125,
00:00:00.7708,22.3388671875,16.4794921875,29.296875,8.4228515625,
00:00:00.7729,17.2119140625,17.9443359375,37.353515625,26.7333984375,
00:00:00.7749,10.25390625,16.4794921875,39.55078125,26.0009765625,
00:00:00.777,9.8876953125,15.380859375,38.4521484375,10.986328125,
00:00:00.7791,12.0849609375,12.0849609375,40.6494140625,11.71875,
00:00:00.7812,20.8740234375,16.845703125,40.283203125,14.2822265625,
00:00:00.7833,21.6064453125,16.845703125,39.1845703125,11.71875,
00:00:00.7854,16.845703125,10.986328125,35.5224609375,6.591796875,
00:00:00.7874,6.2255859375,3.662109375,30.76171875,10.6201171875,
00:00:00.7895,0.3662109375,3.662109375,30.76171875,9.521484375,
00:00:00.7916,7.32421875,11.71875,35.5224609375,11.71875,
00:00:00.7937,4.7607421875,4.7607421875,35.888671875,8.056640625,
00:00:00.7958,4.7607421875,3.662109375,33.3251953125,5.859375,
00:00:00.7979,13.18359375,7.6904296875,26.3671875,2.5634765625,
00:00:00.7999,17.578125,13.5498046875,21.6064453125,4.7607421875,
00:00:00.802,21.240234375,19.04296875,20.8740234375,9.521484375,
00:00:00.8041,21.97265625,20.1416015625,24.169921875,4.39453125,
00:00:00.8062,18.6767578125,23.8037109375,25.634765625,7.32421875,
00:00:00.8083,20.5078125,26.3671875,20.5078125,4.7607421875,
00:00:00.8104,14.6484375,19.04296875,22.3388671875,1.46484375,
00:00:00.8124,11.71875,15.0146484375,27.4658203125,3.2958984375,
00:00:00.8145,16.845703125,17.2119140625,26.0009765625,5.126953125,
00:00:00.8166,13.916015625,14.2822265625,20.8740234375,4.0283203125,
00:00:00.8187,13.18359375,14.6484375,18.310546875,5.859375,
00:00:00.8208,17.578125,18.310546875,12.0849609375,9.521484375,
00:00:00.8229,14.2822265625,17.578125,13.916015625,16.845703125,
00:00:00.8249,13.5498046875,23.0712890625,13.5498046875,11.71875,
00:00:00.827,10.986328125,26.3671875,8.7890625,7.32421875,
00:00:00.8291,10.986328125,23.0712890625,10.25390625,-2.197265625,
00:00:00.8312,18.6767578125,26.0009765625,13.18359375,7.32421875,
00:00:00.8333,13.916015625,17.578125,13.916015625,19.04296875,
00:00:00.8354,10.25390625,15.380859375,6.9580078125,31.8603515625,
00:00:00.8374,6.591796875,15.0146484375,-0.3662109375,39.9169921875,
00:00:00.8395,0.732421875,16.4794921875,-5.126953125,54.5654296875,
00:00:00.8416,3.2958984375,22.705078125,-3.2958984375,83.49609375,
00:00:00.8437,19.04296875,32.5927734375,3.662109375,100.341796875,
00:00:00.8458,21.240234375,29.296875,16.845703125,62.6220703125,
00:00:00.8479,14.2822265625,18.310546875,29.6630859375,9.521484375,
00:00:00.8499,13.18359375,17.578125,25.634765625,6.591796875,
00:00:00.852,16.845703125,24.169921875,6.9580078125,23.0712890625,
00:00:00.8541,13.18359375,26.3671875,0.732421875,71.044921875,
00:00:00.8562,4.7607421875,28.9306640625,6.2255859375,95.947265625,
00:00:00.8583,9.521484375,35.15625,-1.46484375,63.720703125,
00:00:00.8604,9.521484375,31.1279296875,7.6904296875,-0.732421875,
00:00:00.8624,10.6201171875,34.423828125,16.845703125,-29.6630859375,
00:00:00.8645,13.5498046875,25.634765625,24.169921875,-18.310546875,
00:00:00.8666,7.6904296875,12.8173828125,28.1982421875,-17.2119140625,
00:00:00.8687,9.521484375,14.2822265625,27.83203125,-2.197265625,
00:00:00.8708,13.18359375,19.4091796875,17.2119140625,7.32421875,
00:00:00.8729,-3.662109375,5.859375,5.126953125,-2.5634765625,
00:00:00.8749,-10.6201171875,1.0986328125,8.056640625,7.6904296875,
00:00:00.877,2.197265625,11.71875,11.71875,31.8603515625,
00:00:00.8791,11.71875,16.4794921875,15.0146484375,44.3115234375,
00:00:00.8812,16.845703125,14.2822265625,6.9580078125,13.18359375,
00:00:00.8833,12.0849609375,5.126953125,5.126953125,-28.1982421875,
00:00:00.8854,10.6201171875,2.5634765625,9.521484375,-40.283203125,
00:00:00.8874,5.859375,-4.0283203125,11.3525390625,-31.494140625,
00:00:00.8895,0.3662109375,-5.126953125,10.986328125,-27.83203125,
00:00:00.8916,7.6904296875,1.46484375,10.25390625,-23.8037109375,
00:00:00.8937,16.4794921875,8.056640625,11.3525390625,-23.8037109375,
00:00:00.8958,8.4228515625,-2.9296875,17.9443359375,-26.3671875,
00:00:00.8979,3.2958984375,-14.2822265625,22.3388671875,-22.3388671875,
00:00:00.8999,6.9580078125,-8.056640625,21.6064453125,-26.7333984375,
00:00:00.902,11.3525390625,-3.2958984375,7.6904296875,-43.5791015625,
00:00:00.9041,9.8876953125,-3.662109375,7.6904296875,-45.41015625,
00:00:00.9062,5.859375,-2.197265625,10.986328125,-56.0302734375,
00:00:00.9083,5.126953125,-3.2958984375,9.521484375,-64.0869140625,
00:00:00.9104,3.2958984375,-8.4228515625,12.8173828125,-65.91796875,
00:00:00.9124,-2.5634765625,-16.845703125,7.6904296875,-81.298828125,
00:00:00.9145,9.8876953125,-9.521484375,3.2958984375,-87.5244140625,
00:00:00.9166,17.578125,-2.5634765625,8.056640625,-83.8623046875,
00:00:00.9187,8.056640625,-9.521484375,17.578125,-82.3974609375,
00:00:00.9208,2.9296875,-13.916015625,19.04296875,-74.3408203125,
00:00:00.9229,0.3662109375,-8.056640625,17.9443359375,-78.369140625,
00:00:00.9249,0,-7.32421875,19.4091796875,-93.3837890625,
00:00:00.927,8.7890625,-0.732421875,21.240234375,-94.8486328125,
00:00:00.9291,15.380859375,2.197265625,24.169921875,-91.552734375,
00:00:00.9312,20.5078125,1.46484375,26.0009765625,-95.947265625,
00:00:00.9333,26.0009765625,9.521484375,26.3671875,-101.07421875,
00:00:00.9354,32.2265625,16.4794921875,25.2685546875,-89.35546875,
00:00:00.9374,17.578125,4.7607421875,19.4091796875,-90.8203125,
00:00:00.9395,7.6904296875,1.46484375,23.8037109375,-90.8203125,
00:00:00.9416,15.380859375,8.4228515625,27.4658203125,-89.7216796875,
00:00:00.9437,26.3671875,16.4794921875,27.4658203125,-86.0595703125,
00:00:00.9458,31.494140625,23.8037109375,28.1982421875,-97.412109375,
00:00:00.9479,21.240234375,10.25390625,31.1279296875,-101.806640625,
00:00:00.9499,27.83203125,14.6484375,19.4091796875,-107.2998046875,
00:00:00.952,28.9306640625,16.4794921875,20.1416015625,-97.0458984375,
00:00:00.9541,22.3388671875,10.6201171875,22.3388671875,-89.35546875,
00:00:00.9562,14.2822265625,10.25390625,19.04296875,-98.14453125,
00:00:00.9583,13.5498046875,12.0849609375,14.2822265625,-99.9755859375,
00:00:00.9604,19.04296875,16.845703125,4.7607421875,-98.14453125,
00:00:00.9624,26.3671875,21.240234375,7.32421875,-98.5107421875,
00:00:00.9645,39.1845703125,30.76171875,16.845703125,-85.693359375,
00:00:00.9666,38.818359375,29.6630859375,25.634765625,-70.6787109375,
00:00:00.9687,31.8603515625,25.2685546875,30.029296875,-47.9736328125,
00:00:00.9708,34.7900390625,29.296875,25.634765625,-40.6494140625,
00:00:00.9729,43.212890625,42.8466796875,12.8173828125,-46.142578125,
00:00:00.9749,35.888671875,38.0859375,13.18359375,-48.33984375,
00:00:00.977,31.1279296875,30.76171875,17.2119140625,-54.5654296875,
00:00:00.9791,40.283203125,35.888671875,18.310546875,-54.931640625,
00:00:00.9812,22.705078125,15.0146484375,30.76171875,-58.2275390625,
00:00:00.9833,20.8740234375,12.0849609375,29.296875,-55.2978515625,
00:00:00.9854,24.5361328125,17.578125,27.83203125,-43.212890625,
00:00:00.9874,24.5361328125,20.1416015625,23.8037109375,-31.494140625,
00:00:00.9895,23.0712890625,24.90234375,11.3525390625,-18.310546875,
00:00:00.9916,24.5361328125,29.6630859375,9.8876953125,-11.3525390625,
00:00:00.9937,21.6064453125,24.90234375,14.2822265625,-30.3955078125,
00:00:00.9958,31.1279296875,28.1982421875,16.4794921875,-38.4521484375,
00:00:00.9979,46.5087890625,36.62109375,16.4794921875,-47.607421875,
00:00:00.9999,37.353515625,25.2685546875,17.2119140625,-56.0302734375,
00:00:01.002,28.1982421875,17.2119140625,18.310546875,-68.115234375,
00:00:01.0041,26.0009765625,19.4091796875,12.0849609375,-64.8193359375,
00:00:01.0062,26.0009765625,24.90234375,2.5634765625,-54.5654296875,
00:00:01.0083,28.9306640625,29.6630859375,8.4228515625,-46.142578125,
00:00:01.0104,37.353515625,38.0859375,19.4091796875,-39.9169921875,
00:00:01.0124,25.634765625,33.3251953125,17.2119140625,-8.056640625,
00:00:01.0145,28.564453125,40.283203125,23.0712890625,4.39453125,
00:00:01.0166,26.3671875,36.62109375,26.0009765625,13.18359375,
00:00:01.0187,28.9306640625,38.4521484375,28.564453125,6.591796875,
00:00:01.0208,28.564453125,40.283203125,24.169921875,-17.578125,
00:00:01.0229,28.1982421875,36.62109375,16.4794921875,-38.4521484375,
00:00:01.0249,28.1982421875,38.818359375,21.6064453125,-44.3115234375,
00:00:01.027,27.83203125,39.55078125,17.9443359375,-36.2548828125,
00:00:01.0291,23.8037109375,38.0859375,7.6904296875,-26.3671875,
00:00:01.0312,22.3388671875,38.0859375,8.7890625,-28.1982421875,
00:00:01.0333,24.90234375,39.9169921875,22.3388671875,-14.6484375,
00:00:01.0354,27.83203125,42.48046875,26.0009765625,-15.7470703125,
00:00:01.0374,22.705078125,38.818359375,22.3388671875,-32.5927734375,
00:00:01.0395,28.564453125,36.62109375,17.2119140625,-36.9873046875,
00:00:01.0416,28.1982421875,34.423828125,10.25390625,-46.142578125,
00:00:01.0437,26.7333984375,35.5224609375,8.7890625,-50.537109375,
00:00:01.0458,30.76171875,41.015625,13.5498046875,-35.5224609375,
00:00:01.0478,29.296875,43.9453125,20.8740234375,-18.6767578125,
00:00:01.0499,25.634765625,39.1845703125,28.564453125,-8.7890625,
00:00:01.052,26.3671875,40.6494140625,32.2265625,-9.8876953125,
00:00:01.0541,25.2685546875,37.353515625,29.296875,-20.5078125,
00:00:01.0562,25.2685546875,34.423828125,31.1279296875,-27.83203125,
00:00:01.0583,31.494140625,38.0859375,17.2119140625,-31.8603515625,
00:00:01.0603,32.5927734375,36.9873046875,2.9296875,-31.1279296875,
00:00:01.0624,28.1982421875,36.2548828125,4.0283203125,-6.591796875,
00:00:01.0645,25.634765625,36.9873046875,8.7890625,14.2822265625,
00:00:01.0666,20.8740234375,34.423828125,13.18359375,18.6767578125,
00:00:01.0687,17.578125,30.029296875,10.986328125,16.845703125,
00:00:01.0708,21.240234375,32.958984375,12.8173828125,13.5498046875,
00:00:01.0728,24.5361328125,34.423828125,17.9443359375,13.18359375,
00:00:01.0749,28.564453125,34.423828125,23.0712890625,11.3525390625,
00:00:01.077,24.169921875,27.4658203125,27.83203125,26.3671875,
00:00:01.0791,24.169921875,28.9306640625,26.7333984375,39.55078125,
00:00:01.0812,24.169921875,34.7900390625,30.029296875,56.396484375,
00:00:01.0833,16.845703125,30.76171875,35.5224609375,58.2275390625,
00:00:01.0853,19.04296875,31.8603515625,32.2265625,53.466796875,
00:00:01.0874,27.4658203125,35.5224609375,26.3671875,47.2412109375,
00:00:01.0895,29.296875,33.69140625,28.1982421875,45.7763671875,
00:00:01.0916,27.4658203125,28.9306640625,28.1982421875,36.9873046875,
00:00:01.0937,27.4658203125,27.4658203125,33.3251953125,38.818359375,
00:00:01.0958,29.296875,30.76171875,32.2265625,49.8046875,
00:00:01.0978,31.1279296875,35.5224609375,27.83203125,58.9599609375,
00:00:01.0999,32.958984375,38.4521484375,31.1279296875,66.2841796875,
00:00:01.102,36.62109375,40.283203125,34.7900390625,58.59375,
00:00:01.1041,32.5927734375,36.9873046875,38.818359375,56.396484375,
00:00:01.1062,33.3251953125,33.69140625,42.8466796875,45.41015625,
00:00:01.1083,32.5927734375,28.564453125,38.0859375,41.015625,
00:00:01.1103,31.8603515625,30.76171875,31.8603515625,53.1005859375,
00:00:01.1124,27.83203125,29.6630859375,27.83203125,64.8193359375,
00:00:01.1145,24.5361328125,30.029296875,24.5361328125,71.77734375,
00:00:01.1166,22.705078125,32.5927734375,13.916015625,67.3828125,
00:00:01.1187,21.6064453125,30.029296875,13.18359375,69.580078125,
00:00:01.1208,24.90234375,32.5927734375,23.0712890625,73.974609375,
00:00:01.1228,27.4658203125,31.8603515625,26.7333984375,67.7490234375,
00:00:01.1249,31.1279296875,31.1279296875,28.1982421875,46.142578125,
00:00:01.127,28.564453125,28.1982421875,27.4658203125,52.3681640625,
00:00:01.1291,23.8037109375,24.90234375,28.1982421875,73.974609375,
00:00:01.1312,19.04296875,24.5361328125,23.8037109375,75.439453125,
00:00:01.1333,27.4658203125,31.8603515625,20.5078125,81.298828125,
00:00:01.1353,31.494140625,36.62109375,19.4091796875,84.228515625,
00:00:01.1374,28.1982421875,35.5224609375,15.380859375,76.904296875,
00:00:01.1395,26.7333984375,31.1279296875,17.578125,61.5234375,
00:00:01.1416,24.5361328125,26.0009765625,22.3388671875,53.466796875,
00:00:01.1437,24.169921875,26.3671875,24.169921875,52.734375,
00:00:01.1458,25.2685546875,32.2265625,28.1982421875,72.1435546875,
00:00:01.1478,26.3671875,34.7900390625,29.6630859375,83.8623046875,
00:00:01.1499,20.8740234375,27.4658203125,27.83203125,87.5244140625,
00:00:01.152,14.2822265625,23.8037109375,23.8037109375,79.833984375,
00:00:01.1541,8.056640625,17.9443359375,26.3671875,63.720703125,
00:00:01.1562,13.916015625,20.1416015625,35.888671875,56.396484375,
00:00:01.1583,15.380859375,20.1416015625,39.55078125,51.6357421875,
00:00:01.1603,19.4091796875,21.6064453125,32.2265625,52.734375,
00:00:01.1624,26.7333984375,32.2265625,25.634765625,57.12890625,
00:00:01.1645,20.8740234375,34.423828125,25.634765625,72.1435546875,
00:00:01.1666,20.5078125,36.9873046875,28.9306640625,78.7353515625,
00:00:01.1687,19.4091796875,32.2265625,28.564453125,65.5517578125,
00:00:01.1708,21.240234375,27.83203125,25.634765625,55.2978515625,
00:00:01.1728,25.634765625,32.2265625,21.240234375,39.55078125,
00:00:01.1749,21.6064453125,31.494140625,20.5078125,40.6494140625,
00:00:01.177,19.04296875,27.83203125,24.5361328125,44.3115234375,
00:00:01.1791,22.705078125,28.9306640625,26.7333984375,47.2412109375,
00:00:01.1812,24.169921875,33.69140625,26.0009765625,63.3544921875,
00:00:01.1833,19.4091796875,30.76171875,28.1982421875,68.115234375,
00:00:01.1853,17.2119140625,23.8037109375,33.69140625,64.8193359375,
00:00:01.1874,16.4794921875,23.8037109375,34.423828125,53.8330078125,
00:00:01.1895,20.1416015625,26.7333984375,26.3671875,32.958984375,
00:00:01.1916,25.634765625,29.6630859375,16.845703125,28.564453125,
00:00:01.1937,24.90234375,27.4658203125,17.2119140625,37.353515625,
00:00:01.1958,26.7333984375,29.6630859375,12.8173828125,45.7763671875,
00:00:01.1978,24.90234375,31.494140625,17.9443359375,61.1572265625,
00:00:01.1999,21.97265625,32.958984375,17.578125,61.8896484375,
00:00:01.202,27.4658203125,37.353515625,19.4091796875,60.791015625,
00:00:01.2041,27.83203125,38.0859375,14.6484375,43.9453125,
00:00:01.2062,27.4658203125,36.9873046875,10.6201171875,15.7470703125,
00:00:01.2083,26.3671875,34.7900390625,20.1416015625,23.8037109375,
00:00:01.2103,22.705078125,31.494140625,24.169921875,39.9169921875,
00:00:01.2124,24.90234375,28.9306640625,17.578125,39.9169921875,
00:00:01.2145,22.705078125,31.494140625,19.04296875,51.6357421875,
00:00:01.2166,21.6064453125,31.1279296875,27.4658203125,55.2978515625,
00:00:01.2187,17.578125,29.6630859375,24.5361328125,54.5654296875,
00:00:01.2208,17.9443359375,27.83203125,29.296875,46.875,
00:00:01.2228,18.310546875,21.97265625,39.55078125,42.48046875,
00:00:01.2249,16.845703125,20.8740234375,31.494140625,39.1845703125,
00:00:01.227,26.3671875,31.494140625,17.2119140625,32.958984375,
00:00:01.2291,24.169921875,25.634765625,14.6484375,36.62109375,
00:00:01.2312,25.634765625,24.90234375,16.845703125,54.931640625,
00:00:01.2333,31.494140625,35.15625,18.310546875,68.4814453125,
00:00:01.2353,33.69140625,43.9453125,20.1416015625,71.77734375,
00:00:01.2374,33.69140625,46.875,20.5078125,64.453125,
00:00:01.2395,38.818359375,49.8046875,18.6767578125,56.7626953125,
00:00:01.2416,41.748046875,45.7763671875,17.9443359375,50.537109375,
00:00:01.2437,36.2548828125,37.353515625,20.1416015625,53.1005859375,
00:00:01.2458,32.5927734375,36.2548828125,23.8037109375,71.77734375,
00:00:01.2478,28.564453125,38.4521484375,35.15625,97.412109375,
00:00:01.2499,29.6630859375,41.748046875,42.48046875,97.7783203125,
00:00:01.252,31.494140625,40.6494140625,39.1845703125,93.3837890625,
00:00:01.2541,31.494140625,40.283203125,17.578125,72.1435546875,
00:00:01.2562,31.494140625,39.1845703125,4.7607421875,57.12890625,
00:00:01.2583,29.296875,37.353515625,8.7890625,61.5234375,
00:00:01.2603,29.6630859375,39.9169921875,10.25390625,68.115234375,
00:00:01.2624,27.83203125,38.4521484375,15.380859375,75.0732421875,
00:00:01.2645,28.1982421875,40.283203125,21.6064453125,93.017578125,
00:00:01.2666,29.6630859375,43.9453125,13.916015625,86.7919921875,
00:00:01.2687,24.169921875,41.748046875,13.5498046875,85.693359375,
00:00:01.2708,20.1416015625,36.62109375,15.7470703125,71.4111328125,
00:00:01.2728,24.90234375,32.958984375,20.8740234375,67.0166015625,
00:00:01.2749,33.3251953125,39.55078125,16.845703125,52.734375,
00:00:01.277,29.6630859375,41.748046875,15.0146484375,44.3115234375,
00:00:01.2791,23.8037109375,40.6494140625,22.705078125,57.4951171875,
00:00:01.2812,13.916015625,34.423828125,24.5361328125,56.7626953125,
00:00:01.2833,8.4228515625,31.1279296875,31.494140625,57.4951171875,
00:00:01.2853,12.0849609375,31.494140625,28.9306640625,54.19921875,
00:00:01.2874,11.71875,26.7333984375,23.8037109375,37.353515625,
00:00:01.2895,15.380859375,27.4658203125,24.90234375,19.4091796875,
00:00:01.2916,18.6767578125,30.029296875,26.7333984375,12.8173828125,
00:00:01.2937,16.4794921875,31.1279296875,29.6630859375,10.25390625,
00:00:01.2958,14.6484375,31.494140625,22.3388671875,16.4794921875,
00:00:01.2978,10.986328125,32.5927734375,12.0849609375,0.3662109375,
00:00:01.2999,17.2119140625,41.015625,15.380859375,1.46484375,
00:00:01.302,21.97265625,47.2412109375,23.0712890625,-10.25390625,
00:00:01.3041,25.2685546875,43.5791015625,21.97265625,-29.6630859375,
00:00:01.3062,27.83203125,35.5224609375,23.0712890625,-31.494140625,
00:00:01.3083,31.1279296875,36.62109375,23.0712890625,-39.9169921875,
00:00:01.3103,27.83203125,36.9873046875,19.4091796875,-39.1845703125,
00:00:01.3124,31.494140625,42.48046875,17.578125,-31.8603515625,
00:00:01.3145,25.2685546875,42.1142578125,15.380859375,-22.705078125,
00:00:01.3166,21.97265625,38.4521484375,17.9443359375,-15.0146484375,
00:00:01.3187,22.705078125,36.9873046875,26.0009765625,-13.916015625,
00:00:01.3208,16.4794921875,29.296875,36.9873046875,-21.97265625,
00:00:01.3228,14.6484375,22.705078125,43.5791015625,-27.4658203125,
00:00:01.3249,13.5498046875,12.8173828125,45.7763671875,-38.0859375,
00:00:01.327,13.5498046875,19.04296875,40.6494140625,-30.3955078125,
00:00:01.3291,29.296875,44.677734375,29.6630859375,-14.6484375,
00:00:01.3312,37.353515625,58.59375,14.6484375,-5.126953125,
00:00:01.3333,26.7333984375,51.26953125,8.7890625,0,
00:00:01.3353,17.9443359375,40.283203125,13.916015625,1.0986328125,
00:00:01.3374,17.578125,37.353515625,14.2822265625,-3.2958984375,
00:00:01.3395,21.6064453125,41.015625,17.2119140625,-11.71875,
00:00:01.3416,28.1982421875,47.607421875,15.7470703125,-26.3671875,
00:00:01.3437,31.1279296875,51.6357421875,16.4794921875,-18.6767578125,
00:00:01.3458,29.296875,47.9736328125,16.4794921875,2.5634765625,
00:00:01.3478,26.3671875,44.677734375,21.240234375,11.71875,
00:00:01.3499,20.8740234375,42.48046875,20.8740234375,15.7470703125,
00:00:01.352,19.4091796875,44.3115234375,21.97265625,6.9580078125,
00:00:01.3541,18.310546875,49.8046875,23.8037109375,0.732421875,
00:00:01.3562,18.310546875,42.48046875,20.1416015625,-17.578125,
00:00:01.3583,18.310546875,31.8603515625,18.310546875,-24.90234375,
00:00:01.3603,15.7470703125,25.2685546875,23.8037109375,-14.6484375,
00:00:01.3624,14.2822265625,26.0009765625,21.6064453125,-3.662109375,
00:00:01.3645,17.2119140625,32.958984375,19.04296875,7.6904296875,
00:00:01.3666,15.7470703125,36.2548828125,19.4091796875,20.5078125,
00:00:01.3687,20.1416015625,38.0859375,17.9443359375,11.3525390625,
00:00:01.3708,18.310546875,35.888671875,18.6767578125,-3.2958984375,
00:00:01.3728,19.04296875,34.7900390625,15.7470703125,-4.0283203125,
00:00:01.3749,20.5078125,35.5224609375,14.2822265625,-2.197265625,
00:00:01.377,23.0712890625,39.55078125,14.6484375,3.662109375,
00:00:01.3791,26.0009765625,43.212890625,15.380859375,11.71875,
00:00:01.3812,20.5078125,40.6494140625,16.845703125,28.9306640625,
00:00:01.3833,17.578125,42.48046875,17.578125,45.41015625,
00:00:01.3853,20.8740234375,42.8466796875,20.1416015625,42.1142578125,
00:00:01.3874,22.3388671875,43.212890625,22.3388671875,22.3388671875,
00:00:01.3895,20.5078125,40.283203125,21.240234375,-0.732421875,
00:00:01.3916,21.240234375,38.4521484375,15.380859375,-1.0986328125,
00:00:01.3937,23.8037109375,34.7900390625,15.380859375,18.6767578125,
00:00:01.3958,24.5361328125,41.015625,20.8740234375,35.15625,
00:00:01.3978,17.578125,46.142578125,22.705078125,40.6494140625,
00:00:01.3999,12.8173828125,41.015625,25.2685546875,47.607421875,
00:00:01.402,13.18359375,37.353515625,25.634765625,39.1845703125,
00:00:01.4041,15.0146484375,36.9873046875,20.8740234375,28.564453125,
00:00:01.4062,11.71875,31.8603515625,10.6201171875,8.4228515625,
00:00:01.4083,12.8173828125,28.1982421875,0.732421875,2.197265625,
00:00:01.4103,8.7890625,26.3671875,0,17.2119140625,
00:00:01.4124,7.32421875,25.634765625,8.7890625,30.76171875,
00:00:01.4145,12.0849609375,29.6630859375,15.7470703125,48.33984375,
00:00:01.4166,15.7470703125,35.888671875,9.8876953125,46.142578125,
00:00:01.4187,14.2822265625,34.423828125,8.056640625,23.8037109375,
00:00:01.4208,11.71875,34.423828125,5.859375,-0.732421875,
00:00:01.4228,15.380859375,35.15625,5.126953125,-11.71875,
00:00:01.4249,13.5498046875,31.1279296875,6.2255859375,-9.8876953125,
00:00:01.427,6.2255859375,20.8740234375,8.056640625,-5.859375,
00:00:01.4291,8.056640625,25.2685546875,15.0146484375,0.3662109375,
00:00:01.4312,8.4228515625,29.296875,12.8173828125,11.3525390625,
00:00:01.4333,6.9580078125,31.494140625,5.126953125,15.0146484375,
00:00:01.4353,5.126953125,30.76171875,12.0849609375,8.7890625,
00:00:01.4374,3.2958984375,28.9306640625,13.916015625,-1.0986328125,
00:00:01.4395,1.46484375,19.4091796875,5.859375,-19.4091796875,
00:00:01.4416,4.7607421875,17.9443359375,4.0283203125,-22.3388671875,
00:00:01.4437,4.7607421875,20.8740234375,6.591796875,-5.859375,
00:00:01.4458,4.39453125,18.6767578125,1.46484375,4.7607421875,
00:00:01.4478,-0.732421875,15.7470703125,12.0849609375,15.7470703125,
00:00:01.4499,0,19.04296875,18.6767578125,23.8037109375,
00:00:01.452,7.6904296875,28.1982421875,14.6484375,18.310546875,
00:00:01.4541,11.71875,30.029296875,13.5498046875,8.4228515625,
00:00:01.4562,4.39453125,20.1416015625,20.5078125,6.591796875,
00:00:01.4583,0.3662109375,15.380859375,20.8740234375,0,
00:00:01.4603,0.732421875,15.7470703125,16.845703125,-5.859375,
00:00:01.4624,6.2255859375,20.1416015625,15.0146484375,6.591796875,
00:00:01.4645,14.2822265625,30.029296875,17.578125,22.3388671875,
00:00:01.4666,18.310546875,32.958984375,17.9443359375,31.8603515625,
00:00:01.4687,15.0146484375,27.83203125,20.5078125,25.2685546875,
00:00:01.4708,13.18359375,26.7333984375,25.2685546875,15.0146484375,
00:00:01.4728,11.3525390625,24.169921875,28.564453125,13.5498046875,
00:00:01.4749,15.7470703125,25.2685546875,28.1982421875,8.056640625,
00:00:01.477,21.240234375,27.4658203125,31.1279296875,13.916015625,
00:00:01.4791,21.240234375,29.296875,31.494140625,35.5224609375,
00:00:01.4812,19.4091796875,33.3251953125,29.296875,47.9736328125,
00:00:01.4833,17.578125,35.5224609375,16.845703125,36.2548828125,
00:00:01.4853,17.578125,34.423828125,16.845703125,31.1279296875,
00:00:01.4874,23.8037109375,39.55078125,18.310546875,25.2685546875,
00:00:01.4895,17.578125,30.029296875,17.2119140625,12.8173828125,
00:00:01.4916,17.578125,31.494140625,17.578125,21.97265625,
00:00:01.4937,22.705078125,39.55078125,21.97265625,28.564453125,
00:00:01.4958,20.5078125,36.62109375,28.1982421875,31.494140625,
00:00:01.4978,13.916015625,30.76171875,34.423828125,39.1845703125,
00:00:01.4999,11.71875,28.1982421875,36.62109375,43.5791015625,
00:00:01.502,13.916015625,32.5927734375,25.2685546875,55.2978515625,
00:00:01.5041,15.0146484375,31.8603515625,14.6484375,41.015625,
00:00:01.5062,14.2822265625,28.1982421875,8.4228515625,16.4794921875,
00:00:01.5083,15.0146484375,24.5361328125,10.986328125,5.859375,
00:00:01.5103,21.240234375,29.296875,18.310546875,18.310546875,
00:00:01.5124,22.705078125,31.494140625,19.04296875,41.015625,
00:00:01.5145,14.2822265625,26.3671875,8.4228515625,50.9033203125,
00:00:01.5166,11.3525390625,24.169921875,4.39453125,53.1005859375,
00:00:01.5187,14.6484375,30.029296875,6.9580078125,47.9736328125,
00:00:01.5208,13.5498046875,36.2548828125,6.2255859375,37.353515625,
00:00:01.5228,14.6484375,32.958984375,13.916015625,25.2685546875,
00:00:01.5249,16.845703125,31.494140625,13.916015625,16.845703125,
00:00:01.527,16.4794921875,29.6630859375,6.9580078125,20.1416015625,
00:00:01.5291,21.97265625,37.353515625,5.126953125,39.9169921875,
00:00:01.5312,21.240234375,39.55078125,6.9580078125,51.26953125,
00:00:01.5333,14.2822265625,33.69140625,8.4228515625,54.19921875,
00:00:01.5353,10.6201171875,28.9306640625,15.380859375,50.537109375,
00:00:01.5374,11.71875,27.83203125,20.8740234375,42.8466796875,
00:00:01.5395,15.0146484375,27.4658203125,24.5361328125,30.029296875,
00:00:01.5416,20.1416015625,26.7333984375,21.6064453125,28.1982421875,
00:00:01.5437,23.8037109375,31.1279296875,21.240234375,30.029296875,
00:00:01.5458,18.6767578125,31.494140625,21.6064453125,35.888671875,
00:00:01.5478,15.7470703125,35.15625,15.0146484375,49.8046875,
00:00:01.5499,17.9443359375,38.818359375,17.2119140625,63.3544921875,
00:00:01.552,24.169921875,41.015625,24.5361328125,58.2275390625,
00:00:01.5541,23.8037109375,39.1845703125,21.97265625,36.2548828125,
00:00:01.5562,23.8037109375,38.0859375,17.2119140625,22.3388671875,
00:00:01.5583,20.1416015625,36.2548828125,11.71875,16.845703125,
00:00:01.5603,19.4091796875,40.283203125,13.5498046875,27.4658203125,
00:00:01.5624,22.3388671875,44.677734375,13.5498046875,46.5087890625,
00:00:01.5645,17.9443359375,36.62109375,12.8173828125,47.9736328125,
00:00:01.5666,13.5498046875,33.3251953125,15.380859375,49.4384765625,
00:00:01.5687,16.4794921875,41.748046875,14.6484375,49.8046875,
00:00:01.5708,13.916015625,45.41015625,15.0146484375,38.0859375,
00:00:01.5728,9.8876953125,38.818359375,12.8173828125,25.2685546875,
00:00:01.5749,15.380859375,43.9453125,13.916015625,13.18359375,
00:00:01.577,18.6767578125,46.5087890625,15.380859375,14.2822265625,
00:00:01.5791,18.310546875,49.4384765625,8.056640625,30.76171875,
00:00:01.5812,14.2822265625,52.3681640625,8.056640625,38.4521484375,
00:00:01.5833,11.3525390625,46.875,10.6201171875,34.423828125,
00:00:01.5853,9.521484375,41.748046875,20.1416015625,46.142578125,
00:00:01.5874,10.25390625,39.1845703125,20.8740234375,35.5224609375,
00:00:01.5895,9.521484375,36.9873046875,19.04296875,23.8037109375,
00:00:01.5916,9.521484375,37.353515625,23.8037109375,17.9443359375,
00:00:01.5937,13.5498046875,44.3115234375,18.6767578125,13.5498046875,
00:00:01.5958,16.4794921875,49.8046875,15.7470703125,26.3671875,
00:00:01.5978,16.845703125,54.19921875,19.04296875,42.48046875,
00:00:01.5999,15.7470703125,55.2978515625,21.240234375,50.1708984375,
00:00:01.602,18.6767578125,53.8330078125,20.1416015625,36.9873046875,
00:00:01.6041,20.8740234375,52.3681640625,20.5078125,27.4658203125,
00:00:01.6062,20.1416015625,46.875,20.5078125,13.18359375,
00:00:01.6083,20.1416015625,45.41015625,20.8740234375,13.916015625,
00:00:01.6103,16.4794921875,41.015625,20.1416015625,21.97265625,
00:00:01.6124,17.578125,45.41015625,24.5361328125,40.6494140625,
00:00:01.6145,18.6767578125,48.33984375,26.3671875,56.7626953125,
00:00:01.6166,18.310546875,50.9033203125,27.83203125,58.9599609375,
00:00:01.6187,17.2119140625,49.8046875,24.90234375,33.69140625,
00:00:01.6208,13.5498046875,44.3115234375,19.4091796875,18.310546875,
00:00:01.6228,16.4794921875,42.8466796875,20.5078125,19.04296875,
00:00:01.6249,17.578125,42.8466796875,34.423828125,17.9443359375,
00:00:01.627,25.2685546875,51.26953125,38.818359375,33.3251953125,
00:00:01.6291,24.169921875,50.9033203125,35.15625,50.1708984375,
00:00:01.6312,13.5498046875,43.5791015625,29.6630859375,57.861328125,
00:00:01.6333,10.6201171875,42.48046875,21.240234375,56.7626953125,
00:00:01.6353,18.6767578125,46.875,13.916015625,49.4384765625,
00:00:01.6374,22.705078125,46.875,9.521484375,34.7900390625,
00:00:01.6395,20.8740234375,43.212890625,8.7890625,32.5927734375,
00:00:01.6416,20.8740234375,43.5791015625,12.0849609375,29.296875,
00:00:01.6437,27.4658203125,53.466796875,21.6064453125,29.6630859375,
00:00:01.6458,21.6064453125,51.26953125,36.2548828125,47.9736328125,
00:00:01.6478,19.4091796875,52.3681640625,39.9169921875,58.59375,
00:00:01.6499,27.4658203125,61.5234375,32.2265625,69.2138671875,
00:00:01.652,27.4658203125,62.6220703125,26.3671875,59.6923828125,
00:00:01.6541,19.04296875,55.2978515625,26.0009765625,42.48046875,
00:00:01.6562,18.310546875,48.33984375,20.8740234375,38.818359375,
00:00:01.6583,22.705078125,42.8466796875,15.380859375,42.8466796875,
00:00:01.6603,26.0009765625,39.1845703125,16.4794921875,48.33984375,
00:00:01.6624,26.0009765625,38.818359375,15.7470703125,56.7626953125,
00:00:01.6645,24.90234375,40.6494140625,18.6767578125,62.6220703125,
00:00:01.6666,26.7333984375,42.48046875,20.1416015625,78.0029296875,
00:00:01.6687,15.380859375,30.76171875,14.6484375,71.4111328125,
00:00:01.6708,6.591796875,20.8740234375,11.3525390625,49.8046875,
00:00:01.6728,10.986328125,22.705078125,10.986328125,38.818359375,
00:00:01.6749,17.2119140625,26.3671875,11.3525390625,32.958984375,
00:00:01.677,14.6484375,24.5361328125,13.18359375,31.494140625,
00:00:01.6791,8.7890625,20.5078125,12.0849609375,40.283203125,
00:00:01.6812,4.39453125,15.7470703125,10.986328125,42.48046875,
00:00:01.6833,2.197265625,14.6484375,13.18359375,50.537109375,
00:00:01.6853,3.662109375,15.7470703125,15.0146484375,53.466796875,
00:00:01.6874,4.0283203125,13.18359375,20.5078125,40.283203125,
00:00:01.6895,5.126953125,10.25390625,26.3671875,23.0712890625,
00:00:01.6916,5.859375,7.6904296875,27.4658203125,15.380859375,
00:00:01.6937,8.056640625,9.8876953125,26.0009765625,26.0009765625,
00:00:01.6958,9.8876953125,11.71875,21.97265625,36.2548828125,
00:00:01.6978,4.0283203125,10.986328125,19.4091796875,46.5087890625,
00:00:01.6999,0.3662109375,8.4228515625,22.3388671875,47.2412109375,
00:00:01.702,4.0283203125,6.591796875,26.3671875,45.7763671875,
00:00:01.7041,7.32421875,6.2255859375,25.634765625,39.55078125,
00:00:01.7062,9.521484375,4.7607421875,21.97265625,22.3388671875,
00:00:01.7083,12.0849609375,10.986328125,22.705078125,13.5498046875,
00:00:01.7103,10.6201171875,12.0849609375,24.169921875,17.9443359375,
00:00:01.7124,4.39453125,7.32421875,26.3671875,36.2548828125,
00:00:01.7145,-0.732421875,1.0986328125,24.5361328125,38.4521484375,
00:00:01.7166,0.3662109375,1.46484375,26.7333984375,44.677734375,
00:00:01.7187,5.126953125,5.859375,28.1982421875,42.8466796875,
00:00:01.7208,10.986328125,8.7890625,27.4658203125,34.7900390625,
00:00:01.7228,14.6484375,11.3525390625,32.5927734375,20.5078125,
00:00:01.7249,17.9443359375,14.6484375,32.958984375,13.5498046875,
00:00:01.727,17.578125,15.380859375,26.3671875,19.04296875,
00:00:01.7291,15.380859375,14.6484375,28.9306640625,28.9306640625,
00:00:01.7312,13.916015625,16.4794921875,31.494140625,43.5791015625,
00:00:01.7333,9.521484375,11.71875,32.958984375,50.1708984375,
00:00:01.7353,6.591796875,10.986328125,35.5224609375,46.875,
00:00:01.7374,1.0986328125,5.859375,36.2548828125,35.888671875,
00:00:01.7395,-5.859375,-4.7607421875,39.9169921875,33.69140625,
00:00:01.7416,-6.591796875,-13.916015625,49.4384765625,26.0009765625,
00:00:01.7437,0.3662109375,-16.4794921875,51.26953125,36.9873046875,
00:00:01.7458,7.6904296875,-8.4228515625,50.537109375,43.9453125,
00:00:01.7478,7.32421875,-2.197265625,45.7763671875,43.9453125,
00:00:01.7499,5.859375,-2.197265625,39.9169921875,49.4384765625,
00:00:01.752,11.3525390625,-0.3662109375,38.818359375,54.931640625,
00:00:01.7541,15.7470703125,2.9296875,29.296875,44.677734375,
00:00:01.7562,19.4091796875,1.0986328125,24.5361328125,29.296875,
00:00:01.7583,19.4091796875,-3.662109375,27.83203125,11.71875,
00:00:01.7603,23.0712890625,-3.2958984375,30.76171875,11.71875,
00:00:01.7624,22.3388671875,-3.662109375,31.8603515625,27.4658203125,
00:00:01.7645,16.4794921875,-8.056640625,23.8037109375,33.69140625,
00:00:01.7666,19.4091796875,-4.7607421875,12.8173828125,34.423828125,
00:00:01.7687,23.0712890625,-1.46484375,10.6201171875,25.2685546875,
00:00:01.7708,21.6064453125,-3.2958984375,13.916015625,14.2822265625,
00:00:01.7728,24.90234375,-5.859375,15.380859375,2.9296875,
00:00:01.7749,24.169921875,-13.18359375,20.1416015625,1.46484375,
00:00:01.777,21.6064453125,-18.6767578125,25.634765625,4.0283203125,
00:00:01.7791,18.6767578125,-21.6064453125,32.5927734375,17.9443359375,
00:00:01.7812,15.7470703125,-25.2685546875,35.5224609375,34.7900390625,
00:00:01.7833,9.521484375,-30.3955078125,33.69140625,41.748046875,
00:00:01.7853,6.591796875,-33.69140625,29.6630859375,42.8466796875,
00:00:01.7874,9.521484375,-28.1982421875,31.494140625,31.8603515625,
00:00:01.7895,16.4794921875,-21.97265625,30.029296875,21.97265625,
00:00:01.7916,18.310546875,-23.0712890625,31.494140625,17.578125,
00:00:01.7937,13.916015625,-28.1982421875,30.029296875,23.8037109375,
00:00:01.7958,9.8876953125,-29.296875,32.958984375,35.15625,
00:00:01.7978,7.6904296875,-27.4658203125,36.62109375,44.3115234375,
00:00:01.7999,10.6201171875,-24.5361328125,35.888671875,50.1708984375,
00:00:01.802,12.8173828125,-23.0712890625,36.2548828125,45.7763671875,
00:00:01.8041,13.916015625,-20.5078125,35.15625,40.6494140625,
00:00:01.8062,15.7470703125,-21.240234375,35.888671875,29.296875,
00:00:01.8083,14.2822265625,-32.2265625,36.62109375,21.240234375,
00:00:01.8103,13.18359375,-32.5927734375,36.9873046875,24.5361328125,
00:00:01.8124,14.2822265625,-24.169921875,34.423828125,35.5224609375,
00:00:01.8145,11.3525390625,-21.240234375,35.15625,47.607421875,
00:00:01.8166,9.8876953125,-20.5078125,35.888671875,62.255859375,
00:00:01.8187,15.0146484375,-18.6767578125,31.494140625,50.537109375,
00:00:01.8208,18.6767578125,-18.310546875,25.2685546875,34.7900390625,
00:00:01.8228,10.25390625,-27.83203125,27.4658203125,22.3388671875,
00:00:01.8249,10.6201171875,-25.2685546875,30.029296875,20.8740234375,
00:00:01.827,20.5078125,-11.71875,32.5927734375,34.423828125,
00:00:01.8291,26.0009765625,-6.9580078125,32.958984375,42.1142578125,
00:00:01.8312,24.169921875,-6.9580078125,36.2548828125,57.861328125,
00:00:01.8333,21.97265625,-6.9580078125,38.0859375,61.8896484375,
00:00:01.8353,26.0009765625,-6.591796875,38.4521484375,55.2978515625,
00:00:01.8374,21.6064453125,-10.986328125,36.9873046875,36.9873046875,
00:00:01.8395,26.0009765625,-6.9580078125,37.353515625,23.8037109375,
00:00:01.8416,30.029296875,-1.46484375,39.55078125,18.310546875,
00:00:01.8437,20.8740234375,-6.9580078125,36.2548828125,25.634765625,
00:00:01.8458,16.845703125,-10.6201171875,35.15625,33.69140625,
00:00:01.8478,15.0146484375,-10.6201171875,39.55078125,38.0859375,
00:00:01.8499,17.2119140625,-8.056640625,39.55078125,50.1708984375,
00:00:01.852,17.9443359375,-4.39453125,34.423828125,43.5791015625,
00:00:01.8541,17.9443359375,-6.9580078125,31.1279296875,23.0712890625,
00:00:01.8562,21.240234375,-9.521484375,29.296875,9.8876953125,
00:00:01.8583,18.6767578125,-17.2119140625,26.0009765625,2.9296875,
00:00:01.8603,15.380859375,-16.4794921875,24.90234375,6.2255859375,
00:00:01.8624,18.6767578125,-7.6904296875,32.5927734375,10.25390625,
00:00:01.8645,21.97265625,-4.0283203125,31.1279296875,15.380859375,
00:00:01.8666,18.6767578125,-2.5634765625,29.6630859375,22.705078125,
00:00:01.8687,11.71875,-4.7607421875,28.1982421875,21.97265625,
00:00:01.8708,10.6201171875,-5.859375,31.494140625,12.0849609375,
00:00:01.8728,13.18359375,-7.32421875,36.9873046875,4.0283203125,
00:00:01.8749,15.380859375,-8.7890625,39.55078125,2.197265625,
00:00:01.877,17.578125,-6.591796875,35.888671875,1.46484375,
00:00:01.8791,16.845703125,-8.7890625,33.69140625,7.6904296875,
00:00:01.8812,13.916015625,-6.9580078125,38.818359375,20.5078125,
00:00:01.8833,12.8173828125,-3.662109375,38.818359375,21.97265625,
00:00:01.8853,10.25390625,-1.0986328125,48.33984375,19.4091796875,
00:00:01.8874,10.6201171875,-0.732421875,50.537109375,18.310546875,
00:00:01.8895,13.5498046875,-3.662109375,47.2412109375,6.2255859375,
00:00:01.8916,17.9443359375,-4.39453125,32.2265625,-4.39453125,
00:00:01.8937,20.8740234375,2.5634765625,23.0712890625,-8.4228515625,
00:00:01.8958,17.9443359375,4.39453125,34.7900390625,6.2255859375,
00:00:01.8978,10.6201171875,-0.732421875,42.8466796875,18.6767578125,
00:00:01.8999,5.126953125,-3.662109375,42.8466796875,30.029296875,
00:00:01.902,2.9296875,-3.2958984375,32.2265625,34.423828125,
00:00:01.9041,4.7607421875,0,25.634765625,21.240234375,
00:00:01.9062,10.25390625,2.197265625,28.1982421875,21.6064453125,
00:00:01.9083,15.7470703125,3.662109375,29.6630859375,16.4794921875,
00:00:01.9103,17.9443359375,5.859375,35.5224609375,14.6484375,
00:00:01.9124,17.9443359375,8.056640625,36.62109375,37.353515625,
00:00:01.9145,10.25390625,9.8876953125,31.1279296875,43.5791015625,
00:00:01.9166,4.39453125,7.6904296875,27.4658203125,54.19921875,
00:00:01.9187,2.197265625,6.9580078125,24.169921875,44.3115234375,
00:00:01.9208,8.056640625,10.6201171875,26.0009765625,36.9873046875,
00:00:01.9228,10.986328125,8.7890625,25.634765625,23.8037109375,
00:00:01.9249,13.18359375,8.7890625,26.7333984375,21.6064453125,
00:00:01.927,12.0849609375,12.0849609375,28.1982421875,35.15625,
00:00:01.9291,4.0283203125,7.32421875,31.494140625,42.1142578125,
00:00:01.9312,5.126953125,10.986328125,30.76171875,44.677734375,
00:00:01.9333,14.2822265625,21.97265625,30.029296875,58.2275390625,
00:00:01.9353,19.4091796875,26.3671875,27.83203125,57.861328125,
00:00:01.9374,19.04296875,23.0712890625,22.3388671875,42.8466796875,
00:00:01.9395,20.8740234375,21.240234375,19.4091796875,21.97265625,
00:00:01.9416,24.5361328125,20.8740234375,23.0712890625,21.240234375,
00:00:01.9437,27.4658203125,24.169921875,28.564453125,22.3388671875,
00:00:01.9458,35.15625,32.2265625,33.3251953125,31.1279296875,
00:00:01.9478,34.7900390625,36.62109375,36.2548828125,35.15625,
00:00:01.9499,31.8603515625,33.69140625,28.1982421875,39.1845703125,
00:00:01.952,29.296875,32.958984375,22.3388671875,35.888671875,
00:00:01.9541,28.1982421875,33.3251953125,24.5361328125,28.564453125,
00:00:01.9562,27.83203125,32.2265625,28.1982421875,13.5498046875,
00:00:01.9583,32.958984375,36.9873046875,20.8740234375,11.3525390625,
00:00:01.9603,35.5224609375,35.5224609375,21.97265625,6.9580078125,
00:00:01.9624,31.1279296875,31.8603515625,25.2685546875,19.04296875,
00:00:01.9645,28.564453125,33.3251953125,24.169921875,36.62109375,
00:00:01.9666,30.029296875,38.4521484375,30.76171875,36.9873046875,
00:00:01.9687,31.8603515625,36.62109375,36.62109375,26.7333984375,
00:00:01.9708,28.564453125,31.1279296875,36.9873046875,15.7470703125,
00:00:01.9728,24.90234375,28.9306640625,33.3251953125,1.46484375,
00:00:01.9749,25.2685546875,33.69140625,27.4658203125,-3.662109375,
00:00:01.977,30.029296875,38.4521484375,25.2685546875,-0.3662109375,
00:00:01.9791,28.564453125,31.8603515625,18.310546875,7.32421875,
00:00:01.9812,23.8037109375,28.9306640625,20.8740234375,23.8037109375,
00:00:01.9833,24.169921875,27.83203125,16.4794921875,36.2548828125,
00:00:01.9853,19.4091796875,21.97265625,7.32421875,22.3388671875,
00:00:01.9874,21.97265625,21.6064453125,8.4228515625,11.71875,
00:00:01.9895,27.83203125,23.8037109375,12.0849609375,-3.2958984375,
00:00:01.9916,26.3671875,22.705078125,13.18359375,-10.25390625,
00:00:01.9937,28.564453125,21.6064453125,11.3525390625,-10.25390625,
00:00:01.9958,29.6630859375,21.240234375,12.0849609375,0,
00:00:01.9978,23.8037109375,19.4091796875,15.0146484375,13.5498046875,
00:00:01.9999,20.1416015625,13.5498046875,19.04296875,16.4794921875,
00:00:02.002,22.3388671875,5.126953125,25.634765625,21.6064453125,
00:00:02.0041,24.169921875,4.39453125,23.0712890625,16.845703125,
00:00:02.0062,24.90234375,8.7890625,22.3388671875,-4.0283203125,
00:00:02.0083,25.634765625,13.5498046875,20.8740234375,-19.4091796875,
00:00:02.0103,23.0712890625,16.4794921875,19.4091796875,-8.056640625,
00:00:02.0124,17.9443359375,10.986328125,27.4658203125,8.7890625,
00:00:02.0145,13.916015625,8.4228515625,34.7900390625,20.8740234375,
00:00:02.0166,12.0849609375,8.056640625,37.353515625,23.0712890625,
00:00:02.0187,14.2822265625,9.521484375,27.83203125,15.0146484375,
00:00:02.0208,20.1416015625,16.4794921875,24.90234375,15.7470703125,
00:00:02.0228,25.634765625,21.97265625,26.3671875,4.39453125,
00:00:02.0249,27.4658203125,20.5078125,27.83203125,3.2958984375,
00:00:02.027,22.705078125,10.6201171875,28.564453125,0.732421875,
00:00:02.0291,21.6064453125,8.056640625,22.3388671875,9.521484375,
00:00:02.0312,25.634765625,16.845703125,13.5498046875,15.0146484375,
00:00:02.0333,24.90234375,20.5078125,13.916015625,19.04296875,
00:00:02.0353,27.83203125,21.240234375,21.97265625,14.2822265625,
00:00:02.0374,29.296875,21.240234375,23.0712890625,12.0849609375,
00:00:02.0395,33.3251953125,21.97265625,17.9443359375,-8.7890625,
00:00:02.0416,35.5224609375,21.240234375,16.4794921875,-17.9443359375,
00:00:02.0437,33.69140625,16.4794921875,20.8740234375,-5.859375,
00:00:02.0458,25.634765625,8.056640625,26.0009765625,2.197265625,
00:00:02.0478,17.2119140625,5.126953125,26.3671875,16.845703125,
00:00:02.0499,20.1416015625,12.0849609375,28.9306640625,16.845703125,
00:00:02.052,27.83203125,17.2119140625,29.6630859375,12.8173828125,
00:00:02.0541,24.5361328125,13.5498046875,23.8037109375,2.9296875,
00:00:02.0562,24.5361328125,10.6201171875,10.986328125,-10.986328125,
00:00:02.0583,19.4091796875,8.4228515625,10.6201171875,-15.7470703125,
00:00:02.0603,25.2685546875,15.0146484375,15.7470703125,-3.662109375,
00:00:02.0624,30.029296875,22.3388671875,19.04296875,5.859375,
00:00:02.0645,21.6064453125,15.7470703125,20.1416015625,14.6484375,
00:00:02.0666,20.8740234375,14.6484375,20.5078125,21.97265625,
00:00:02.0687,26.0009765625,19.04296875,19.4091796875,17.9443359375,
00:00:02.0708,32.2265625,26.0009765625,24.169921875,15.0146484375,
00:00:02.0728,42.1142578125,31.494140625,26.0009765625,-12.0849609375,
00:00:02.0749,46.5087890625,31.494140625,21.97265625,-21.6064453125,
00:00:02.077,40.283203125,27.83203125,15.0146484375,-8.056640625,
00:00:02.0791,36.62109375,27.4658203125,15.7470703125,3.662109375,
00:00:02.0812,36.2548828125,28.9306640625,18.6767578125,9.521484375,
00:00:02.0833,38.0859375,31.494140625,19.4091796875,21.6064453125,
00:00:02.0853,33.3251953125,24.169921875,20.1416015625,14.6484375,
00:00:02.0874,28.564453125,19.04296875,26.0009765625,18.6767578125,
00:00:02.0895,38.0859375,25.634765625,24.169921875,8.7890625,
00:00:02.0916,43.5791015625,27.83203125,22.3388671875,5.126953125,
00:00:02.0937,36.9873046875,20.1416015625,21.240234375,10.986328125,
00:00:02.0957,35.888671875,17.9443359375,23.0712890625,23.8037109375,
00:00:02.0978,34.7900390625,18.6767578125,28.1982421875,31.8603515625,
00:00:02.0999,28.9306640625,16.4794921875,28.1982421875,43.212890625,
00:00:02.102,27.4658203125,14.6484375,29.296875,41.748046875,
00:00:02.1041,30.029296875,16.4794921875,32.2265625,35.888671875,
00:00:02.1062,36.62109375,19.4091796875,25.634765625,10.25390625,
00:00:02.1082,26.3671875,11.3525390625,27.4658203125,10.6201171875,
00:00:02.1103,22.705078125,10.25390625,38.0859375,26.7333984375,
00:00:02.1124,27.4658203125,15.380859375,44.677734375,38.0859375,
00:00:02.1145,26.0009765625,16.4794921875,31.8603515625,33.69140625,
00:00:02.1166,27.4658203125,18.6767578125,20.1416015625,44.3115234375,
00:00:02.1187,21.6064453125,12.0849609375,20.8740234375,34.7900390625,
00:00:02.1207,15.0146484375,5.126953125,32.5927734375,22.705078125,
00:00:02.1228,10.986328125,0.732421875,34.7900390625,12.0849609375,
00:00:02.1249,11.3525390625,-1.0986328125,39.55078125,15.7470703125,
00:00:02.127,17.578125,8.056640625,33.69140625,4.7607421875,
00:00:02.1291,20.5078125,12.0849609375,23.8037109375,6.9580078125,
00:00:02.1312,15.0146484375,14.6484375,13.18359375,10.25390625,
00:00:02.1332,17.9443359375,20.1416015625,8.7890625,14.6484375,
00:00:02.1353,21.6064453125,21.97265625,15.7470703125,16.4794921875,
00:00:02.1374,27.4658203125,23.0712890625,24.5361328125,17.9443359375,
00:00:02.1395,29.296875,22.3388671875,19.04296875,0.3662109375,
00:00:02.1416,24.169921875,15.380859375,15.380859375,-19.4091796875,
00:00:02.1437,22.3388671875,13.5498046875,18.6767578125,-14.2822265625,
00:00:02.1457,20.8740234375,14.2822265625,14.6484375,-5.126953125,
00:00:02.1478,19.4091796875,18.6767578125,19.4091796875,16.845703125,
00:00:02.1499,18.6767578125,22.3388671875,22.3388671875,22.3388671875,
00:00:02.152,18.6767578125,24.169921875,21.240234375,15.7470703125,
00:00:02.1541,23.8037109375,23.0712890625,23.0712890625,-7.32421875,
00:00:02.1562,29.6630859375,24.5361328125,24.90234375,-10.25390625,
00:00:02.1582,27.83203125,23.8037109375,21.97265625,-16.845703125,
00:00:02.1603,28.9306640625,26.3671875,27.83203125,-13.5498046875,
00:00:02.1624,28.9306640625,28.9306640625,25.2685546875,7.6904296875,
00:00:02.1645,23.8037109375,23.8037109375,17.2119140625,12.0849609375,
00:00:02.1666,25.2685546875,25.634765625,16.845703125,9.8876953125,
00:00:02.1687,31.494140625,28.564453125,26.0009765625,9.521484375,
00:00:02.1707,31.1279296875,26.7333984375,27.83203125,-8.7890625,
00:00:02.1728,21.97265625,20.5078125,26.7333984375,-22.3388671875,
00:00:02.1749,15.380859375,15.0146484375,22.705078125,-32.958984375,
00:00:02.177,23.8037109375,18.6767578125,16.845703125,-29.6630859375,
00:00:02.1791,25.2685546875,18.310546875,20.1416015625,-13.5498046875,
00:00:02.1812,25.2685546875,20.1416015625,23.8037109375,6.2255859375,
00:00:02.1832,18.6767578125,19.04296875,30.76171875,12.8173828125,
00:00:02.1853,15.0146484375,15.0146484375,31.1279296875,4.0283203125,
00:00:02.1874,20.1416015625,18.310546875,26.7333984375,-4.39453125,
00:00:02.1895,20.5078125,19.4091796875,24.5361328125,-21.240234375,
00:00:02.1916,13.916015625,13.18359375,29.296875,-16.4794921875,
00:00:02.1937,10.6201171875,11.3525390625,24.169921875,-8.056640625,
00:00:02.1957,11.71875,10.986328125,18.6767578125,2.197265625,
00:00:02.1978,15.7470703125,16.4794921875,18.6767578125,8.056640625,
00:00:02.1999,13.18359375,14.2822265625,21.6064453125,15.380859375,
00:00:02.202,8.7890625,6.2255859375,24.169921875,19.04296875,
00:00:02.2041,11.3525390625,5.859375,22.3388671875,18.6767578125,
00:00:02.2062,25.634765625,14.6484375,21.97265625,8.056640625,
00:00:02.2082,35.15625,20.5078125,29.6630859375,17.2119140625,
00:00:02.2103,28.9306640625,21.97265625,33.3251953125,23.8037109375,
00:00:02.2124,25.634765625,22.3388671875,38.4521484375,36.9873046875,
00:00:02.2145,27.4658203125,22.705078125,42.8466796875,48.33984375,
00:00:02.2166,17.578125,15.7470703125,45.7763671875,57.861328125,
00:00:02.2187,14.2822265625,11.71875,29.296875,47.2412109375,
00:00:02.2207,20.5078125,21.6064453125,12.0849609375,31.1279296875,
00:00:02.2228,27.4658203125,29.6630859375,10.6201171875,28.9306640625,
00:00:02.2249,25.634765625,28.1982421875,12.8173828125,22.3388671875,
00:00:02.227,27.83203125,29.296875,4.0283203125,13.916015625,
00:00:02.2291,27.83203125,28.1982421875,3.662109375,22.705078125,
00:00:02.2312,20.8740234375,20.5078125,6.2255859375,35.5224609375,
00:00:02.2332,10.25390625,13.916015625,11.71875,39.1845703125,
00:00:02.2353,6.9580078125,8.056640625,17.578125,41.015625,
00:00:02.2374,9.521484375,7.6904296875,20.5078125,24.5361328125,
00:00:02.2395,15.380859375,9.521484375,19.4091796875,13.18359375,
00:00:02.2416,25.634765625,15.380859375,16.845703125,-1.46484375,
00:00:02.2437,24.5361328125,19.04296875,15.380859375,0,
00:00:02.2457,20.1416015625,18.310546875,17.578125,21.240234375,
00:00:02.2478,15.380859375,18.310546875,13.18359375,23.8037109375,
00:00:02.2499,10.6201171875,17.2119140625,6.9580078125,16.4794921875,
00:00:02.252,15.0146484375,20.1416015625,10.986328125,-2.5634765625,
00:00:02.2541,14.2822265625,17.578125,15.380859375,-9.521484375,
00:00:02.2562,8.7890625,11.71875,17.578125,-21.240234375,
00:00:02.2582,10.986328125,11.71875,23.0712890625,-18.6767578125,
00:00:02.2603,12.0849609375,12.0849609375,24.5361328125,-21.6064453125,
00:00:02.2624,14.2822265625,16.4794921875,24.90234375,-12.0849609375,
00:00:02.2645,6.9580078125,13.18359375,29.296875,-2.5634765625,
00:00:02.2666,8.4228515625,16.4794921875,28.9306640625,3.2958984375,
00:00:02.2687,14.6484375,20.1416015625,25.634765625,0,
00:00:02.2707,13.5498046875,17.2119140625,26.7333984375,-15.7470703125,
00:00:02.2728,14.6484375,15.7470703125,26.0009765625,-33.69140625,
00:00:02.2749,16.845703125,17.9443359375,20.1416015625,-35.15625,
00:00:02.277,17.2119140625,20.1416015625,19.4091796875,-28.1982421875,
00:00:02.2791,22.3388671875,21.6064453125,20.8740234375,-20.8740234375,
00:00:02.2812,25.634765625,25.2685546875,17.578125,-8.4228515625,
00:00:02.2832,25.2685546875,29.296875,20.8740234375,0.3662109375,
00:00:02.2853,17.9443359375,24.90234375,27.4658203125,3.2958984375,
00:00:02.2874,17.578125,23.8037109375,29.6630859375,-4.39453125,
00:00:02.2895,20.1416015625,23.0712890625,26.0009765625,-17.9443359375,
00:00:02.2916,16.4794921875,21.240234375,19.04296875,-26.3671875,
00:00:02.2937,21.6064453125,28.1982421875,15.7470703125,-18.310546875,
00:00:02.2957,23.0712890625,30.76171875,14.6484375,-0.732421875,
00:00:02.2978,21.97265625,31.1279296875,15.0146484375,14.2822265625,
00:00:02.2999,24.169921875,34.7900390625,17.2119140625,20.5078125,
00:00:02.302,25.634765625,32.958984375,18.6767578125,13.5498046875,
00:00:02.3041,24.90234375,32.2265625,17.9443359375,13.18359375,
00:00:02.3062,28.9306640625,32.958984375,19.04296875,5.126953125,
00:00:02.3082,32.958984375,34.423828125,24.90234375,4.39453125,
00:00:02.3103,34.423828125,36.9873046875,21.240234375,5.859375,
00:00:02.3124,22.705078125,25.634765625,15.0146484375,15.380859375,
00:00:02.3145,17.578125,24.5361328125,15.0146484375,28.564453125,
00:00:02.3166,27.4658203125,35.888671875,18.310546875,30.76171875,
00:00:02.3187,26.7333984375,31.1279296875,15.7470703125,31.1279296875,
00:00:02.3207,22.3388671875,25.634765625,20.1416015625,32.5927734375,
00:00:02.3228,24.169921875,28.1982421875,20.5078125,16.845703125,
00:00:02.3249,26.0009765625,28.9306640625,24.169921875,14.6484375,
00:00:02.327,29.296875,32.2265625,33.69140625,28.564453125,
00:00:02.3291,22.3388671875,28.1982421875,30.029296875,29.296875,
00:00:02.3312,20.1416015625,31.8603515625,30.76171875,43.212890625,
00:00:02.3332,22.3388671875,35.5224609375,28.564453125,41.015625,
00:00:02.3353,19.04296875,31.494140625,26.0009765625,38.4521484375,
00:00:02.3374,19.4091796875,28.564453125,24.169921875,27.4658203125,
00:00:02.3395,22.3388671875,26.3671875,22.705078125,14.6484375,
00:00:02.3416,20.1416015625,22.705078125,28.1982421875,12.8173828125,
00:00:02.3437,18.310546875,22.3388671875,32.2265625,14.6484375,
00:00:02.3457,21.240234375,25.2685546875,32.5927734375,20.8740234375,
00:00:02.3478,20.1416015625,26.3671875,30.76171875,26.0009765625,
00:00:02.3499,16.4794921875,25.2685546875,32.958984375,28.9306640625,
00:00:02.352,11.71875,18.6767578125,37.353515625,24.169921875,
00:00:02.3541,12.0849609375,16.4794921875,45.41015625,18.310546875,
00:00:02.3562,16.845703125,18.6767578125,45.41015625,-0.3662109375,
00:00:02.3582,18.6767578125,18.6767578125,35.5224609375,-10.986328125,
00:00:02.3603,21.240234375,21.6064453125,22.3388671875,-5.859375,
00:00:02.3624,13.18359375,14.6484375,18.6767578125,8.056640625,
00:00:02.3645,7.6904296875,16.4794921875,19.04296875,21.240234375,
00:00:02.3666,12.0849609375,26.3671875,21.6064453125,20.5078125,
00:00:02.3687,18.6767578125,28.9306640625,22.3388671875,26.7333984375,
00:00:02.3707,19.04296875,26.0009765625,23.0712890625,20.5078125,
00:00:02.3728,26.3671875,27.4658203125,25.634765625,3.662109375,
00:00:02.3749,35.15625,33.3251953125,24.5361328125,-5.126953125,
00:00:02.377,29.6630859375,29.6630859375,24.169921875,-1.46484375,
00:00:02.3791,17.2119140625,18.310546875,19.4091796875,11.71875,
00:00:02.3812,14.2822265625,18.310546875,17.578125,22.3388671875,
00:00:02.3832,15.7470703125,21.6064453125,18.6767578125,32.958984375,
00:00:02.3853,20.8740234375,25.2685546875,22.705078125,28.9306640625,
00:00:02.3874,25.634765625,30.029296875,24.169921875,29.6630859375,
00:00:02.3895,27.4658203125,28.564453125,21.240234375,16.845703125,
00:00:02.3916,27.4658203125,28.564453125,18.310546875,6.2255859375,
00:00:02.3937,28.1982421875,32.2265625,18.310546875,14.6484375,
00:00:02.3957,31.1279296875,35.888671875,21.240234375,21.240234375,
00:00:02.3978,31.1279296875,37.353515625,34.423828125,41.748046875,
00:00:02.3999,26.7333984375,32.2265625,39.9169921875,57.12890625,
00:00:02.402,30.029296875,36.9873046875,26.3671875,43.5791015625,
00:00:02.4041,31.494140625,37.353515625,17.9443359375,30.029296875,
00:00:02.4062,33.69140625,34.423828125,17.578125,23.0712890625,
00:00:02.4082,37.353515625,38.818359375,17.2119140625,11.3525390625,
00:00:02.4103,38.4521484375,40.6494140625,15.380859375,16.4794921875,
00:00:02.4124,38.818359375,42.48046875,17.9443359375,28.564453125,
00:00:02.4145,28.564453125,36.2548828125,21.97265625,46.875,
00:00:02.4166,24.169921875,35.15625,20.1416015625,49.4384765625,
00:00:02.4187,21.6064453125,33.69140625,18.310546875,31.8603515625,
00:00:02.4207,21.240234375,32.5927734375,17.9443359375,22.705078125,
00:00:02.4228,22.3388671875,28.564453125,20.5078125,10.6201171875,
00:00:02.4249,24.5361328125,27.83203125,24.169921875,0.732421875,
00:00:02.427,25.634765625,30.76171875,24.90234375,12.0849609375,
00:00:02.4291,24.90234375,31.494140625,22.705078125,18.310546875,
00:00:02.4312,23.8037109375,34.7900390625,26.0009765625,29.296875,
00:00:02.4332,12.8173828125,24.5361328125,25.634765625,35.15625,
00:00:02.4353,15.380859375,27.4658203125,20.5078125,30.76171875,
00:00:02.4374,21.240234375,29.296875,20.8740234375,19.4091796875,
00:00:02.4395,21.240234375,26.7333984375,21.6064453125,-0.3662109375,
00:00:02.4416,17.9443359375,20.8740234375,20.5078125,1.46484375,
00:00:02.4437,16.4794921875,17.578125,19.04296875,6.591796875,
00:00:02.4457,24.90234375,28.564453125,19.4091796875,12.8173828125,
00:00:02.4478,34.7900390625,38.4521484375,17.578125,26.3671875,
00:00:02.4499,38.4521484375,42.48046875,24.169921875,35.15625,
00:00:02.452,40.283203125,43.212890625,27.83203125,26.7333984375,
00:00:02.4541,39.55078125,44.3115234375,30.029296875,15.7470703125,
00:00:02.4562,40.6494140625,42.8466796875,27.4658203125,6.9580078125,
00:00:02.4582,41.748046875,40.283203125,25.634765625,0.732421875,
00:00:02.4603,38.0859375,35.888671875,28.1982421875,-4.0283203125,
00:00:02.4624,31.8603515625,34.423828125,26.7333984375,3.662109375,
00:00:02.4645,32.958984375,40.6494140625,24.5361328125,20.5078125,
00:00:02.4666,28.1982421875,36.2548828125,26.7333984375,23.8037109375,
00:00:02.4687,18.6767578125,24.5361328125,21.240234375,12.0849609375,
00:00:02.4707,23.0712890625,27.83203125,15.380859375,2.5634765625,
00:00:02.4728,29.6630859375,32.2265625,11.3525390625,0.732421875,
00:00:02.4749,31.494140625,31.1279296875,7.6904296875,-12.8173828125,
00:00:02.477,35.888671875,34.7900390625,7.32421875,-7.6904296875,
00:00:02.4791,34.423828125,34.423828125,8.4228515625,-5.126953125,
00:00:02.4812,36.62109375,39.9169921875,13.5498046875,16.4794921875,
00:00:02.4832,36.2548828125,44.3115234375,14.6484375,29.296875,
00:00:02.4853,39.1845703125,44.3115234375,20.8740234375,30.76171875,
00:00:02.4874,42.8466796875,45.41015625,28.1982421875,22.3388671875,
00:00:02.4895,43.5791015625,43.212890625,32.2265625,2.9296875,
00:00:02.4916,39.55078125,36.62109375,23.8037109375,-14.2822265625,
00:00:02.4937,32.958984375,32.958984375,9.521484375,-19.04296875,
00:00:02.4957,27.4658203125,31.494140625,8.7890625,-9.521484375,
00:00:02.4978,29.6630859375,35.15625,18.6767578125,2.9296875,
00:00:02.4999,32.2265625,39.55078125,30.76171875,11.3525390625,
00:00:02.502,29.296875,35.15625,30.029296875,10.986328125,
00:00:02.5041,29.6630859375,36.9873046875,22.3388671875,-0.732421875,
00:00:02.5062,32.958984375,34.7900390625,26.0009765625,-13.916015625,
00:00:02.5082,33.3251953125,32.5927734375,24.169921875,-10.25390625,
00:00:02.5103,29.6630859375,30.029296875,16.845703125,-8.7890625,
00:00:02.5124,25.634765625,30.029296875,17.2119140625,-1.0986328125,
00:00:02.5145,24.90234375,31.494140625,12.0849609375,9.8876953125,
00:00:02.5166,28.564453125,36.2548828125,12.0849609375,19.04296875,
00:00:02.5187,30.76171875,35.5224609375,16.4794921875,4.0283203125,
00:00:02.5207,31.8603515625,35.15625,18.310546875,-0.3662109375,
00:00:02.5228,28.1982421875,28.564453125,19.4091796875,-14.6484375,
00:00:02.5249,20.8740234375,20.5078125,23.8037109375,-29.6630859375,
00:00:02.527,25.2685546875,25.2685546875,27.4658203125,-16.845703125,
00:00:02.5291,31.1279296875,32.2265625,28.564453125,-4.39453125,
00:00:02.5312,31.8603515625,37.353515625,27.83203125,15.0146484375,
00:00:02.5332,30.76171875,41.748046875,23.0712890625,22.3388671875,
00:00:02.5353,24.5361328125,31.8603515625,19.4091796875,14.6484375,
00:00:02.5374,18.310546875,28.1982421875,23.0712890625,3.662109375,
00:00:02.5395,20.5078125,29.296875,24.5361328125,-6.9580078125,
00:00:02.5416,25.2685546875,29.6630859375,23.0712890625,-10.986328125,
00:00:02.5437,20.8740234375,26.3671875,24.169921875,-4.7607421875,
00:00:02.5457,17.9443359375,25.2685546875,26.3671875,1.0986328125,
00:00:02.5478,20.1416015625,29.296875,24.5361328125,9.8876953125,
00:00:02.5499,27.83203125,36.9873046875,18.310546875,15.380859375,
00:00:02.552,24.169921875,33.69140625,12.8173828125,10.6201171875,
00:00:02.5541,21.6064453125,31.494140625,11.71875,1.0986328125,
00:00:02.5562,17.9443359375,22.3388671875,15.380859375,-10.986328125,
00:00:02.5582,24.5361328125,25.2685546875,20.1416015625,-13.18359375,
00:00:02.5603,26.7333984375,27.83203125,17.578125,-7.6904296875,
00:00:02.5624,20.8740234375,21.6064453125,17.578125,-4.7607421875,
00:00:02.5645,18.310546875,23.8037109375,20.8740234375,11.71875,
00:00:02.5666,14.2822265625,23.0712890625,25.634765625,24.169921875,
00:00:02.5687,13.5498046875,21.97265625,26.0009765625,27.83203125,
00:00:02.5707,17.9443359375,25.634765625,23.8037109375,14.2822265625,
00:00:02.5728,24.169921875,26.7333984375,20.5078125,8.4228515625,
00:00:02.5749,18.310546875,21.240234375,13.5498046875,1.46484375,
00:00:02.577,21.97265625,25.2685546875,13.18359375,4.39453125,
00:00:02.5791,22.705078125,28.564453125,18.6767578125,17.578125,
00:00:02.5812,15.7470703125,24.90234375,23.0712890625,30.76171875,
00:00:02.5832,15.7470703125,26.7333984375,22.705078125,34.7900390625,
00:00:02.5853,21.240234375,30.76171875,27.4658203125,38.4521484375,
00:00:02.5874,26.0009765625,32.958984375,28.9306640625,30.76171875,
00:00:02.5895,25.2685546875,27.4658203125,27.83203125,22.705078125,
00:00:02.5916,18.6767578125,19.04296875,22.3388671875,21.6064453125,
00:00:02.5937,20.5078125,21.240234375,21.6064453125,25.634765625,
00:00:02.5957,27.4658203125,28.564453125,28.564453125,38.818359375,
00:00:02.5978,26.0009765625,28.9306640625,32.958984375,45.7763671875,
00:00:02.5999,21.240234375,24.90234375,36.2548828125,54.5654296875,
00:00:02.602,20.8740234375,24.90234375,28.9306640625,53.1005859375,
00:00:02.6041,17.578125,22.3388671875,18.310546875,27.4658203125,
00:00:02.6062,20.1416015625,23.0712890625,14.6484375,20.1416015625,
00:00:02.6082,26.0009765625,26.3671875,19.04296875,20.1416015625,
00:00:02.6103,23.8037109375,24.90234375,21.97265625,19.4091796875,
00:00:02.6124,20.1416015625,22.705078125,23.8037109375,35.15625,
00:00:02.6145,20.5078125,27.83203125,19.04296875,46.142578125,
00:00:02.6166,23.0712890625,34.423828125,15.7470703125,46.875,
00:00:02.6187,27.4658203125,39.9169921875,18.310546875,44.3115234375,
00:00:02.6207,27.4658203125,38.818359375,25.634765625,28.1982421875,
00:00:02.6228,21.97265625,28.9306640625,29.296875,18.6767578125,
00:00:02.6249,20.8740234375,23.0712890625,24.5361328125,26.7333984375,
00:00:02.627,26.7333984375,28.564453125,21.97265625,18.310546875,
00:00:02.6291,24.169921875,26.7333984375,24.90234375,20.5078125,
00:00:02.6312,24.5361328125,29.6630859375,26.3671875,35.15625,
00:00:02.6332,31.8603515625,42.1142578125,24.90234375,36.9873046875,
00:00:02.6353,32.958984375,43.9453125,30.029296875,40.6494140625,
00:00:02.6374,31.494140625,39.1845703125,30.76171875,38.4521484375,
00:00:02.6395,27.83203125,33.69140625,22.3388671875,12.0849609375,
00:00:02.6416,26.7333984375,35.15625,21.97265625,-0.732421875,
00:00:02.6437,21.240234375,32.5927734375,24.5361328125,12.8173828125,
00:00:02.6457,16.4794921875,25.634765625,24.5361328125,25.2685546875,
00:00:02.6478,13.916015625,24.90234375,20.8740234375,28.9306640625,
00:00:02.6499,14.2822265625,27.83203125,26.0009765625,38.818359375,
00:00:02.652,15.380859375,29.296875,31.1279296875,36.2548828125,
00:00:02.6541,19.04296875,34.423828125,31.1279296875,22.705078125,
00:00:02.6562,22.705078125,33.69140625,27.83203125,1.0986328125,
00:00:02.6582,17.9443359375,26.3671875,20.1416015625,0.3662109375,
00:00:02.6603,19.4091796875,28.564453125,21.240234375,9.8876953125,
00:00:02.6624,19.04296875,30.029296875,23.0712890625,17.578125,
00:00:02.6645,17.2119140625,31.494140625,26.3671875,26.3671875,
00:00:02.6666,15.380859375,31.8603515625,30.029296875,38.0859375,
00:00:02.6687,16.4794921875,29.6630859375,32.5927734375,35.5224609375,
00:00:02.6707,19.04296875,34.7900390625,33.69140625,28.9306640625,
00:00:02.6728,17.578125,28.9306640625,31.1279296875,17.9443359375,
00:00:02.6749,18.310546875,24.5361328125,23.8037109375,6.2255859375,
00:00:02.677,20.5078125,26.0009765625,17.2119140625,0.3662109375,
00:00:02.6791,15.380859375,20.5078125,19.04296875,3.662109375,
00:00:02.6812,9.8876953125,17.9443359375,29.296875,23.0712890625,
00:00:02.6832,5.859375,15.0146484375,28.9306640625,28.9306640625,
00:00:02.6853,6.9580078125,14.2822265625,28.564453125,16.4794921875,
00:00:02.6874,12.8173828125,20.1416015625,31.1279296875,9.8876953125,
00:00:02.6895,21.97265625,27.83203125,31.8603515625,3.2958984375,
00:00:02.6916,26.7333984375,29.6630859375,28.564453125,4.7607421875,
00:00:02.6937,29.6630859375,30.029296875,31.8603515625,10.986328125,
00:00:02.6957,27.83203125,27.83203125,29.6630859375,17.578125,
00:00:02.6978,25.634765625,29.296875,29.6630859375,24.5361328125,
00:00:02.6999,26.7333984375,31.1279296875,34.7900390625,28.1982421875,
00:00:02.702,29.6630859375,34.423828125,38.4521484375,24.90234375,
00:00:02.7041,36.2548828125,41.748046875,33.69140625,3.2958984375,
00:00:02.7062,35.5224609375,36.2548828125,24.169921875,-9.521484375,
00:00:02.7082,28.564453125,25.634765625,15.7470703125,-20.1416015625,
00:00:02.7103,34.423828125,30.76171875,17.2119140625,-13.18359375,
00:00:02.7124,43.212890625,39.55078125,26.7333984375,15.380859375,
00:00:02.7145,45.7763671875,46.5087890625,32.2265625,25.634765625,
00:00:02.7166,42.1142578125,50.1708984375,32.2265625,26.0009765625,
00:00:02.7187,42.8466796875,57.4951171875,25.2685546875,18.310546875,
00:00:02.7207,45.7763671875,59.6923828125,15.380859375,-8.4228515625,
00:00:02.7228,39.9169921875,51.6357421875,10.986328125,-13.916015625,
00:00:02.7249,38.4521484375,46.875,10.25390625,-20.5078125,
00:00:02.727,36.62109375,43.212890625,10.6201171875,-11.71875,
00:00:02.7291,37.353515625,44.3115234375,18.310546875,14.6484375,
00:00:02.7312,36.2548828125,46.875,23.0712890625,22.3388671875,
00:00:02.7332,27.4658203125,39.55078125,26.7333984375,29.6630859375,
00:00:02.7353,22.705078125,32.2265625,30.029296875,32.958984375,
00:00:02.7374,26.0009765625,32.5927734375,31.1279296875,24.90234375,
00:00:02.7395,31.1279296875,33.69140625,30.029296875,14.6484375,
00:00:02.7416,31.1279296875,34.7900390625,28.564453125,16.4794921875,
00:00:02.7437,20.8740234375,26.0009765625,36.62109375,30.76171875,
00:00:02.7457,16.845703125,24.169921875,36.2548828125,36.9873046875,
00:00:02.7478,13.5498046875,21.97265625,27.83203125,35.888671875,
00:00:02.7499,12.0849609375,22.3388671875,28.564453125,32.5927734375,
00:00:02.752,13.916015625,24.90234375,30.76171875,27.4658203125,
00:00:02.7541,15.380859375,28.564453125,27.4658203125,22.3388671875,
00:00:02.7562,21.97265625,33.69140625,18.310546875,17.578125,
00:00:02.7582,27.4658203125,36.2548828125,19.4091796875,23.8037109375,
00:00:02.7603,30.029296875,35.888671875,19.4091796875,27.83203125,
00:00:02.7624,36.62109375,42.1142578125,17.578125,32.2265625,
00:00:02.7645,42.8466796875,50.1708984375,21.240234375,50.9033203125,
00:00:02.7666,42.8466796875,53.1005859375,21.97265625,44.677734375,
00:00:02.7687,36.2548828125,46.142578125,17.578125,34.7900390625,
00:00:02.7707,39.1845703125,46.5087890625,17.9443359375,20.8740234375,
00:00:02.7728,40.6494140625,42.8466796875,20.1416015625,18.310546875,
00:00:02.7749,44.3115234375,45.41015625,22.3388671875,14.2822265625,
00:00:02.777,43.9453125,46.5087890625,25.2685546875,23.0712890625,
00:00:02.7791,35.888671875,40.283203125,26.0009765625,40.6494140625,
00:00:02.7812,31.8603515625,41.015625,15.0146484375,49.8046875,
00:00:02.7832,33.3251953125,43.5791015625,10.25390625,51.26953125,
00:00:02.7853,35.5224609375,43.5791015625,13.5498046875,40.6494140625,
00:00:02.7874,36.2548828125,42.8466796875,18.310546875,35.5224609375,
00:00:02.7895,40.283203125,42.1142578125,21.6064453125,33.69140625,
00:00:02.7916,40.6494140625,40.283203125,22.705078125,32.2265625,
00:00:02.7937,39.1845703125,39.9169921875,24.169921875,43.5791015625,
00:00:02.7957,33.3251953125,37.353515625,18.6767578125,44.677734375,
00:00:02.7978,32.5927734375,38.0859375,17.2119140625,56.396484375,
00:00:02.7999,31.494140625,36.62109375,20.1416015625,54.931640625,
00:00:02.802,27.83203125,31.1279296875,27.83203125,60.05859375,
00:00:02.8041,24.90234375,26.7333984375,28.1982421875,48.33984375,
00:00:02.8062,30.76171875,31.1279296875,18.310546875,26.7333984375,
00:00:02.8082,31.8603515625,30.76171875,15.0146484375,12.8173828125,
00:00:02.8103,28.1982421875,26.7333984375,24.5361328125,24.90234375,
00:00:02.8124,31.1279296875,31.1279296875,27.83203125,49.8046875,
00:00:02.8145,29.6630859375,32.5927734375,22.3388671875,58.9599609375,
00:00:02.8166,32.958984375,35.888671875,22.705078125,53.466796875,
00:00:02.8187,37.353515625,42.8466796875,14.6484375,49.8046875,
00:00:02.8207,43.9453125,49.4384765625,14.2822265625,42.48046875,
00:00:02.8228,51.26953125,51.6357421875,21.240234375,27.83203125,
00:00:02.8249,54.931640625,53.1005859375,25.634765625,23.8037109375,
00:00:02.827,49.4384765625,49.8046875,28.564453125,32.958984375,
00:00:02.8291,42.1142578125,43.212890625,27.83203125,46.5087890625,
00:00:02.8312,40.6494140625,44.677734375,26.7333984375,46.5087890625,
00:00:02.8332,39.1845703125,43.5791015625,24.90234375,49.4384765625,
00:00:02.8353,37.353515625,38.4521484375,24.5361328125,44.677734375,
00:00:02.8374,39.55078125,40.6494140625,26.3671875,38.4521484375,
00:00:02.8395,39.55078125,39.1845703125,20.8740234375,18.6767578125,
00:00:02.8416,36.62109375,34.7900390625,13.916015625,5.126953125,
00:00:02.8437,33.69140625,32.958984375,17.9443359375,4.7607421875,
00:00:02.8457,33.3251953125,32.958984375,27.83203125,31.494140625,
00:00:02.8478,24.169921875,26.3671875,26.7333984375,44.677734375,
00:00:02.8499,16.4794921875,22.3388671875,26.0009765625,51.6357421875,
00:00:02.852,16.4794921875,20.1416015625,23.0712890625,39.55078125,
00:00:02.8541,28.564453125,30.76171875,21.6064453125,28.564453125,
00:00:02.8562,36.2548828125,34.7900390625,25.2685546875,28.564453125,
00:00:02.8582,36.9873046875,33.69140625,28.564453125,15.7470703125,
00:00:02.8603,40.6494140625,37.353515625,26.3671875,25.2685546875,
00:00:02.8624,40.283203125,36.2548828125,23.0712890625,32.5927734375,
00:00:02.8645,31.1279296875,31.8603515625,23.8037109375,42.8466796875,
00:00:02.8666,29.6630859375,34.7900390625,23.8037109375,43.9453125,
00:00:02.8687,28.1982421875,32.5927734375,26.0009765625,43.5791015625,
00:00:02.8707,21.6064453125,24.90234375,32.2265625,39.55078125,
00:00:02.8728,24.5361328125,25.634765625,24.169921875,20.8740234375,
00:00:02.8749,35.15625,36.2548828125,9.8876953125,4.7607421875,
00:00:02.877,43.212890625,45.7763671875,11.3525390625,14.2822265625,
00:00:02.8791,46.5087890625,49.8046875,17.2119140625,32.2265625,
00:00:02.8812,39.9169921875,46.5087890625,20.1416015625,43.5791015625,
00:00:02.8832,34.7900390625,41.015625,27.83203125,54.931640625,
00:00:02.8853,32.5927734375,39.55078125,34.423828125,61.5234375,
00:00:02.8874,28.9306640625,34.423828125,25.2685546875,36.62109375,
00:00:02.8895,31.494140625,34.423828125,23.0712890625,25.2685546875,
00:00:02.8916,31.1279296875,32.958984375,26.3671875,21.97265625,
00:00:02.8937,31.494140625,34.423828125,24.5361328125,26.3671875,
00:00:02.8957,29.6630859375,31.8603515625,25.2685546875,49.8046875,
00:00:02.8978,24.90234375,28.1982421875,24.90234375,63.3544921875,
00:00:02.8999,21.6064453125,26.0009765625,23.0712890625,70.6787109375,
00:00:02.902,21.6064453125,23.8037109375,28.1982421875,68.4814453125,
00:00:02.9041,23.8037109375,25.634765625,31.8603515625,50.1708984375,
00:00:02.9062,28.1982421875,26.7333984375,29.6630859375,23.8037109375,
00:00:02.9082,25.2685546875,23.0712890625,20.8740234375,20.5078125,
00:00:02.9103,25.634765625,26.7333984375,14.6484375,35.15625,
00:00:02.9124,30.029296875,32.5927734375,17.578125,39.55078125,
00:00:02.9145,30.029296875,35.15625,25.2685546875,54.5654296875,
00:00:02.9166,26.0009765625,32.5927734375,26.7333984375,46.5087890625,
00:00:02.9187,25.2685546875,32.2265625,26.3671875,40.6494140625,
00:00:02.9207,32.2265625,36.9873046875,26.7333984375,31.8603515625,
00:00:02.9228,32.5927734375,32.5927734375,27.83203125,19.4091796875,
00:00:02.9249,34.423828125,28.9306640625,30.76171875,6.591796875,
00:00:02.927,22.3388671875,18.310546875,31.8603515625,17.9443359375,
00:00:02.9291,17.9443359375,15.380859375,29.6630859375,31.494140625,
00:00:02.9312,20.5078125,22.3388671875,30.029296875,41.748046875,
00:00:02.9332,20.1416015625,24.5361328125,33.69140625,41.748046875,
00:00:02.9353,19.04296875,22.705078125,27.83203125,28.1982421875,
00:00:02.9374,25.2685546875,25.634765625,28.564453125,13.5498046875,
00:00:02.9395,33.3251953125,32.2265625,24.90234375,-3.662109375,
00:00:02.9416,30.76171875,28.9306640625,18.310546875,-9.8876953125,
00:00:02.9437,26.0009765625,24.90234375,17.578125,-0.732421875,
00:00:02.9457,22.3388671875,22.3388671875,14.2822265625,8.056640625,
00:00:02.9478,20.8740234375,23.0712890625,13.18359375,22.705078125,
00:00:02.9499,21.6064453125,27.83203125,19.04296875,36.9873046875,
00:00:02.952,31.1279296875,36.62109375,26.3671875,32.5927734375,
00:00:02.9541,33.3251953125,38.0859375,26.0009765625,26.0009765625,
00:00:02.9562,32.5927734375,34.7900390625,24.169921875,5.859375,
00:00:02.9582,28.1982421875,29.6630859375,24.5361328125,-0.3662109375,
00:00:02.9603,23.8037109375,23.8037109375,32.5927734375,4.7607421875,
00:00:02.9624,24.169921875,24.5361328125,35.15625,24.5361328125,
00:00:02.9645,19.4091796875,20.5078125,33.3251953125,33.69140625,
00:00:02.9666,16.845703125,19.04296875,35.15625,36.62109375,
00:00:02.9687,17.578125,20.1416015625,22.3388671875,31.1279296875,
00:00:02.9707,14.2822265625,15.0146484375,16.4794921875,17.578125,
00:00:02.9728,11.71875,13.18359375,19.4091796875,9.8876953125,
00:00:02.9749,12.0849609375,10.6201171875,27.4658203125,13.18359375,
00:00:02.977,13.916015625,14.6484375,29.6630859375,24.90234375,
00:00:02.9791,16.4794921875,18.310546875,34.423828125,22.705078125,
00:00:02.9812,10.6201171875,15.7470703125,35.5224609375,32.958984375,
00:00:02.9832,9.521484375,17.9443359375,31.8603515625,39.9169921875,
00:00:02.9853,14.2822265625,24.90234375,22.3388671875,27.83203125,
00:00:02.9874,13.916015625,25.634765625,19.04296875,18.6767578125,
00:00:02.9895,12.8173828125,20.1416015625,19.4091796875,5.859375,
00:00:02.9916,15.7470703125,20.5078125,14.6484375,-9.521484375,
00:00:02.9937,14.2822265625,17.578125,17.9443359375,-2.5634765625,
00:00:02.9957,8.056640625,13.18359375,22.705078125,17.9443359375,
00:00:02.9978,7.32421875,14.6484375,27.4658203125,39.55078125,
00:00:02.9999,10.25390625,20.1416015625,32.958984375,39.9169921875,
00:00:03.002,17.578125,24.90234375,34.7900390625,37.353515625,
00:00:03.0041,23.8037109375,29.296875,29.296875,17.2119140625,
00:00:03.0062,22.705078125,27.83203125,27.83203125,9.8876953125,
00:00:03.0082,19.4091796875,23.0712890625,25.634765625,4.7607421875,
00:00:03.0103,21.6064453125,26.7333984375,23.8037109375,-0.3662109375,
00:00:03.0124,24.90234375,30.76171875,24.5361328125,8.7890625,
00:00:03.0145,21.97265625,27.83203125,24.169921875,25.634765625,
00:00:03.0166,16.845703125,23.8037109375,25.634765625,29.6630859375,
00:00:03.0187,10.986328125,20.5078125,26.7333984375,24.5361328125,
00:00:03.0207,11.3525390625,22.705078125,28.9306640625,23.8037109375,
00:00:03.0228,10.6201171875,21.6064453125,31.1279296875,8.7890625,
00:00:03.0249,11.3525390625,20.5078125,29.6630859375,-5.859375,
00:00:03.027,13.916015625,19.04296875,31.8603515625,1.0986328125,
00:00:03.0291,17.578125,21.97265625,34.423828125,19.4091796875,
00:00:03.0312,18.6767578125,25.634765625,26.3671875,34.7900390625,
00:00:03.0332,16.845703125,24.90234375,22.3388671875,35.15625,
00:00:03.0353,16.845703125,24.5361328125,27.83203125,39.1845703125,
00:00:03.0374,19.04296875,26.3671875,30.029296875,30.029296875,
00:00:03.0395,19.04296875,24.169921875,27.83203125,11.3525390625,
00:00:03.0416,23.8037109375,26.7333984375,24.169921875,12.8173828125,
00:00:03.0437,26.3671875,29.6630859375,25.634765625,13.5498046875,
00:00:03.0457,24.169921875,28.564453125,24.5361328125,31.1279296875,
00:00:03.0478,21.97265625,31.1279296875,23.0712890625,45.41015625,
00:00:03.0499,20.5078125,28.1982421875,28.9306640625,51.6357421875,
00:00:03.052,24.169921875,30.76171875,31.1279296875,46.5087890625,
00:00:03.0541,21.97265625,30.029296875,28.9306640625,28.9306640625,
00:00:03.0562,22.3388671875,29.296875,24.5361328125,14.2822265625,
00:00:03.0582,21.240234375,26.0009765625,22.3388671875,16.845703125,
00:00:03.0603,17.578125,24.5361328125,24.169921875,35.15625,
00:00:03.0624,19.04296875,27.83203125,27.83203125,47.2412109375,
00:00:03.0645,22.705078125,34.7900390625,29.296875,47.2412109375,
00:00:03.0666,24.90234375,36.62109375,30.76171875,55.2978515625,
00:00:03.0687,21.97265625,36.2548828125,24.5361328125,47.9736328125,
00:00:03.0707,24.169921875,38.4521484375,17.9443359375,34.7900390625,
00:00:03.0728,30.76171875,39.55078125,23.0712890625,31.8603515625,
00:00:03.0749,28.9306640625,33.3251953125,29.296875,31.494140625,
00:00:03.077,21.97265625,28.9306640625,31.8603515625,43.9453125,
00:00:03.0791,17.9443359375,26.3671875,31.8603515625,47.2412109375,
00:00:03.0812,19.04296875,30.76171875,30.76171875,46.5087890625,
00:00:03.0832,18.310546875,29.296875,28.564453125,59.6923828125,
00:00:03.0853,10.6201171875,21.97265625,23.0712890625,53.1005859375,
00:00:03.0874,14.6484375,24.5361328125,16.845703125,43.9453125,
00:00:03.0895,17.9443359375,24.90234375,16.845703125,36.2548828125,
00:00:03.0916,16.4794921875,22.705078125,23.8037109375,33.3251953125,
00:00:03.0937,22.3388671875,31.494140625,19.04296875,35.5224609375,
00:00:03.0957,26.3671875,36.2548828125,19.04296875,44.3115234375,
00:00:03.0978,19.04296875,31.494140625,21.6064453125,60.791015625,
00:00:03.0999,17.9443359375,31.494140625,20.8740234375,52.734375,
00:00:03.102,22.3388671875,35.5224609375,23.0712890625,49.8046875,
00:00:03.1041,21.240234375,35.15625,20.8740234375,42.48046875,
00:00:03.1062,24.5361328125,35.888671875,22.705078125,28.9306640625,
00:00:03.1082,31.1279296875,39.55078125,22.705078125,26.7333984375,
00:00:03.1103,25.2685546875,31.8603515625,21.240234375,36.9873046875,
00:00:03.1124,27.4658203125,33.69140625,24.90234375,47.607421875,
00:00:03.1145,26.0009765625,36.62109375,24.5361328125,55.2978515625,
00:00:03.1166,26.3671875,36.62109375,26.0009765625,51.26953125,
00:00:03.1187,27.4658203125,38.0859375,24.90234375,48.33984375,
00:00:03.1207,23.8037109375,34.7900390625,24.169921875,27.83203125,
00:00:03.1228,20.5078125,28.1982421875,21.6064453125,12.8173828125,
00:00:03.1249,20.5078125,25.634765625,20.5078125,7.32421875,
00:00:03.127,30.029296875,36.62109375,22.705078125,12.8173828125,
00:00:03.1291,38.0859375,46.875,23.0712890625,11.3525390625,
00:00:03.1311,31.494140625,44.3115234375,26.0009765625,24.5361328125,
00:00:03.1332,26.7333984375,40.6494140625,26.0009765625,26.7333984375,
00:00:03.1353,26.3671875,39.9169921875,25.634765625,22.3388671875,
00:00:03.1374,22.705078125,34.7900390625,30.76171875,13.5498046875,
00:00:03.1395,20.8740234375,28.564453125,36.9873046875,10.25390625,
00:00:03.1416,20.5078125,27.4658203125,32.958984375,9.8876953125,
00:00:03.1436,21.97265625,28.564453125,24.169921875,-2.9296875,
00:00:03.1457,24.90234375,30.029296875,26.0009765625,6.591796875,
00:00:03.1478,18.6767578125,26.0009765625,27.4658203125,26.3671875,
00:00:03.1499,8.7890625,19.4091796875,26.0009765625,35.888671875,
00:00:03.152,9.8876953125,20.1416015625,22.705078125,24.169921875,
00:00:03.1541,14.6484375,27.83203125,16.4794921875,11.3525390625,
00:00:03.1561,28.9306640625,42.8466796875,15.0146484375,-3.2958984375,
00:00:03.1582,35.15625,47.607421875,24.90234375,3.2958984375,
00:00:03.1603,29.296875,42.48046875,33.3251953125,21.97265625,
00:00:03.1624,23.0712890625,37.353515625,28.1982421875,23.0712890625,
00:00:03.1645,16.845703125,30.76171875,31.8603515625,27.4658203125,
00:00:03.1666,2.9296875,18.6767578125,33.69140625,38.818359375,
00:00:03.1686,-4.7607421875,10.25390625,22.705078125,32.5927734375,
00:00:03.1707,2.9296875,17.578125,17.2119140625,29.296875,
00:00:03.1728,11.3525390625,23.8037109375,18.310546875,12.0849609375,
00:00:03.1749,21.97265625,31.494140625,26.0009765625,10.6201171875,
00:00:03.177,29.6630859375,39.55078125,22.3388671875,21.97265625,
00:00:03.1791,29.296875,38.4521484375,20.5078125,35.888671875,
00:00:03.1811,26.3671875,35.888671875,11.71875,42.48046875,
00:00:03.1832,26.7333984375,35.888671875,12.8173828125,54.19921875,
00:00:03.1853,27.4658203125,38.0859375,21.97265625,53.1005859375,
00:00:03.1874,29.6630859375,42.8466796875,22.705078125,45.41015625,
00:00:03.1895,24.5361328125,34.423828125,19.04296875,25.634765625,
00:00:03.1916,24.169921875,31.8603515625,12.8173828125,15.7470703125,
00:00:03.1936,30.029296875,39.1845703125,13.916015625,15.7470703125,
00:00:03.1957,32.2265625,42.1142578125,18.6767578125,32.2265625,
00:00:03.1978,29.296875,43.212890625,19.4091796875,54.5654296875,
00:00:03.1999,28.564453125,43.9453125,24.5361328125,64.0869140625,
00:00:03.202,25.2685546875,40.6494140625,22.705078125,52.734375,
00:00:03.2041,24.169921875,36.9873046875,18.310546875,45.7763671875,
00:00:03.2061,24.169921875,31.494140625,16.4794921875,31.8603515625,
00:00:03.2082,20.5078125,26.0009765625,8.4228515625,19.04296875,
00:00:03.2103,20.8740234375,27.4658203125,3.662109375,29.6630859375,
00:00:03.2124,25.634765625,32.2265625,11.3525390625,43.212890625,
00:00:03.2145,26.0009765625,34.423828125,19.04296875,47.9736328125,
00:00:03.2166,21.6064453125,31.8603515625,22.3388671875,53.466796875,
00:00:03.2186,22.705078125,33.69140625,19.4091796875,45.7763671875,
00:00:03.2207,24.90234375,35.15625,16.4794921875,35.5224609375,
00:00:03.2228,24.90234375,31.494140625,19.04296875,21.6064453125,
00:00:03.2249,21.240234375,24.90234375,22.3388671875,16.845703125,
00:00:03.227,19.4091796875,25.634765625,24.5361328125,21.6064453125,
00:00:03.2291,23.0712890625,30.029296875,24.169921875,28.564453125,
00:00:03.2311,20.8740234375,28.9306640625,21.6064453125,40.6494140625,
00:00:03.2332,21.240234375,28.9306640625,19.4091796875,40.6494140625,
00:00:03.2353,21.97265625,28.564453125,22.705078125,35.888671875,
00:00:03.2374,26.3671875,31.1279296875,23.0712890625,17.2119140625,
00:00:03.2395,24.90234375,26.3671875,20.5078125,4.0283203125,
00:00:03.2416,21.240234375,22.3388671875,20.5078125,-0.3662109375,
00:00:03.2436,21.240234375,25.2685546875,27.4658203125,2.5634765625,
00:00:03.2457,26.3671875,30.76171875,38.4521484375,23.8037109375,
00:00:03.2478,28.9306640625,34.423828125,36.62109375,30.029296875,
00:00:03.2499,25.634765625,32.5927734375,30.029296875,30.029296875,
00:00:03.252,21.240234375,26.7333984375,24.5361328125,21.97265625,
00:00:03.2541,18.6767578125,22.705078125,19.4091796875,1.0986328125,
00:00:03.2561,23.0712890625,25.2685546875,20.1416015625,-4.0283203125,
00:00:03.2582,31.8603515625,31.494140625,17.578125,-8.4228515625,
00:00:03.2603,32.2265625,31.8603515625,17.2119140625,5.859375,
00:00:03.2624,21.97265625,22.3388671875,22.3388671875,4.39453125,
00:00:03.2645,16.4794921875,21.240234375,27.4658203125,18.6767578125,
00:00:03.2666,20.1416015625,24.5361328125,20.5078125,19.04296875,
00:00:03.2686,25.634765625,30.029296875,17.9443359375,24.90234375,
00:00:03.2707,26.7333984375,29.6630859375,21.6064453125,9.521484375,
00:00:03.2728,28.564453125,24.169921875,21.97265625,-14.6484375,
00:00:03.2749,23.8037109375,16.4794921875,31.8603515625,-19.04296875,
00:00:03.277,18.310546875,12.8173828125,39.55078125,-7.6904296875,
00:00:03.2791,15.380859375,12.8173828125,32.958984375,6.591796875,
00:00:03.2811,10.986328125,12.0849609375,35.15625,19.04296875,
00:00:03.2832,12.8173828125,17.9443359375,32.2265625,24.169921875,
00:00:03.2853,10.986328125,16.4794921875,32.2265625,19.04296875,
00:00:03.2874,21.97265625,25.634765625,31.8603515625,2.197265625,
00:00:03.2895,33.69140625,34.7900390625,27.4658203125,-15.380859375,
00:00:03.2916,25.2685546875,26.0009765625,31.1279296875,-8.7890625,
00:00:03.2936,15.7470703125,17.9443359375,33.69140625,-2.9296875,
00:00:03.2957,13.916015625,16.845703125,32.2265625,1.46484375,
00:00:03.2978,18.310546875,23.8037109375,29.6630859375,17.578125,
00:00:03.2999,20.1416015625,29.296875,29.296875,28.9306640625,
00:00:03.302,21.97265625,32.2265625,30.029296875,28.564453125,
00:00:03.3041,24.169921875,33.3251953125,24.5361328125,12.8173828125,
00:00:03.3061,29.296875,32.958984375,19.4091796875,-0.732421875,
00:00:03.3082,27.4658203125,28.9306640625,18.310546875,-6.591796875,
00:00:03.3103,26.3671875,28.9306640625,24.169921875,5.126953125,
00:00:03.3124,22.705078125,25.2685546875,25.634765625,13.18359375,
00:00:03.3145,20.1416015625,24.5361328125,25.2685546875,15.380859375,
00:00:03.3166,21.6064453125,26.0009765625,21.97265625,17.578125,
00:00:03.3186,19.04296875,24.90234375,19.04296875,9.521484375,
00:00:03.3207,19.4091796875,24.169921875,21.97265625,-6.9580078125,
00:00:03.3228,29.296875,30.029296875,29.6630859375,-7.32421875,
00:00:03.3249,32.5927734375,31.1279296875,35.888671875,-12.8173828125,
00:00:03.327,26.7333984375,28.1982421875,37.353515625,-14.6484375,
00:00:03.3291,23.0712890625,25.2685546875,33.69140625,-4.0283203125,
00:00:03.3311,21.6064453125,26.3671875,24.5361328125,4.0283203125,
00:00:03.3332,21.6064453125,27.4658203125,21.240234375,13.5498046875,
00:00:03.3353,21.97265625,30.029296875,21.240234375,4.7607421875,
00:00:03.3374,21.97265625,28.564453125,22.3388671875,2.5634765625,
00:00:03.3395,26.7333984375,29.296875,21.97265625,-10.25390625,
00:00:03.3416,28.1982421875,28.9306640625,22.705078125,-24.5361328125,
00:00:03.3436,17.2119140625,18.6767578125,25.2685546875,-18.6767578125,
00:00:03.3457,8.056640625,10.986328125,25.2685546875,0.732421875,
00:00:03.3478,7.32421875,14.2822265625,24.169921875,6.591796875,
00:00:03.3499,12.8173828125,23.0712890625,25.2685546875,7.32421875,
00:00:03.352,12.8173828125,25.634765625,23.0712890625,6.591796875,
00:00:03.3541,16.4794921875,26.3671875,19.04296875,-4.0283203125,
00:00:03.3561,27.4658203125,32.958984375,15.7470703125,-17.9443359375,
00:00:03.3582,32.958984375,33.69140625,17.2119140625,-20.1416015625,
00:00:03.3603,33.69140625,33.69140625,19.4091796875,-18.310546875,
00:00:03.3624,35.888671875,35.5224609375,15.380859375,-6.591796875,
00:00:03.3645,33.69140625,36.9873046875,9.521484375,11.71875,
00:00:03.3666,33.69140625,39.9169921875,13.5498046875,15.0146484375,
00:00:03.3686,29.296875,35.15625,19.04296875,10.986328125,
00:00:03.3707,24.90234375,27.83203125,23.8037109375,1.0986328125,
00:00:03.3728,29.296875,28.564453125,24.5361328125,-8.7890625,
00:00:03.3749,36.9873046875,35.888671875,21.97265625,-8.7890625,
00:00:03.377,35.888671875,37.353515625,23.8037109375,2.5634765625,
00:00:03.3791,20.1416015625,22.705078125,25.2685546875,2.197265625,
00:00:03.3811,15.7470703125,22.3388671875,26.7333984375,16.4794921875,
00:00:03.3832,23.0712890625,28.9306640625,26.0009765625,21.97265625,
00:00:03.3853,23.0712890625,26.0009765625,27.83203125,20.1416015625,
00:00:03.3874,22.705078125,26.3671875,29.296875,5.859375,
00:00:03.3895,24.5361328125,29.296875,27.4658203125,-1.0986328125,
00:00:03.3916,28.564453125,31.8603515625,28.1982421875,-4.7607421875,
00:00:03.3936,25.634765625,28.9306640625,31.494140625,-9.8876953125,
00:00:03.3957,23.0712890625,29.6630859375,28.9306640625,7.6904296875,
00:00:03.3978,21.240234375,31.1279296875,26.7333984375,29.6630859375,
00:00:03.3999,18.310546875,30.029296875,27.4658203125,28.564453125,
00:00:03.402,19.04296875,30.76171875,29.6630859375,29.296875,
00:00:03.4041,22.705078125,33.69140625,34.7900390625,24.90234375,
00:00:03.4061,31.1279296875,36.2548828125,35.888671875,7.32421875,
00:00:03.4082,31.8603515625,35.5224609375,31.494140625,4.39453125,
00:00:03.4103,26.3671875,31.1279296875,28.9306640625,2.9296875,
00:00:03.4124,21.6064453125,28.1982421875,30.76171875,10.25390625,
00:00:03.4145,18.310546875,26.3671875,35.15625,27.83203125,
00:00:03.4166,19.4091796875,28.564453125,34.423828125,43.9453125,
00:00:03.4186,20.1416015625,24.90234375,28.1982421875,34.7900390625,
00:00:03.4207,13.5498046875,19.4091796875,21.6064453125,15.7470703125,
00:00:03.4228,13.916015625,17.2119140625,24.169921875,4.7607421875,
00:00:03.4249,17.2119140625,21.240234375,25.634765625,4.0283203125,
00:00:03.427,20.1416015625,22.705078125,22.705078125,2.5634765625,
00:00:03.4291,20.8740234375,24.90234375,21.240234375,11.71875,
00:00:03.4311,17.9443359375,23.0712890625,24.5361328125,36.9873046875,
00:00:03.4332,19.04296875,26.0009765625,26.3671875,43.5791015625,
00:00:03.4353,21.6064453125,28.564453125,21.97265625,24.90234375,
00:00:03.4374,21.97265625,28.564453125,20.5078125,12.8173828125,
00:00:03.4395,21.6064453125,24.5361328125,23.8037109375,-0.732421875,
00:00:03.4416,28.564453125,28.1982421875,32.2265625,0.732421875,
00:00:03.4436,35.888671875,35.15625,27.83203125,9.521484375,
00:00:03.4457,31.8603515625,31.8603515625,19.04296875,11.3525390625,
00:00:03.4478,23.0712890625,26.0009765625,22.705078125,24.5361328125,
00:00:03.4499,24.5361328125,27.83203125,24.5361328125,35.888671875,
00:00:03.452,22.705078125,25.634765625,26.0009765625,34.423828125,
00:00:03.4541,25.2685546875,28.564453125,26.0009765625,29.6630859375,
00:00:03.4561,22.705078125,25.2685546875,27.4658203125,12.8173828125,
00:00:03.4582,24.5361328125,25.2685546875,26.7333984375,8.7890625,
00:00:03.4603,28.1982421875,28.1982421875,31.1279296875,21.240234375,
00:00:03.4624,31.494140625,31.1279296875,31.494140625,39.1845703125,
00:00:03.4645,28.9306640625,35.15625,29.296875,47.9736328125,
00:00:03.4666,21.240234375,32.5927734375,23.8037109375,49.8046875,
00:00:03.4686,21.6064453125,32.958984375,24.90234375,45.7763671875,
00:00:03.4707,29.6630859375,39.55078125,19.4091796875,42.48046875,
00:00:03.4728,30.76171875,36.2548828125,23.8037109375,29.296875,
00:00:03.4749,35.888671875,38.818359375,32.2265625,27.4658203125,
00:00:03.477,36.9873046875,39.1845703125,36.62109375,35.5224609375,
00:00:03.4791,35.15625,36.2548828125,39.55078125,47.607421875,
00:00:03.4811,30.76171875,34.423828125,39.1845703125,55.2978515625,
00:00:03.4832,26.0009765625,31.8603515625,37.353515625,65.5517578125,
00:00:03.4853,27.4658203125,35.5224609375,28.1982421875,61.8896484375,
00:00:03.4874,25.634765625,35.5224609375,27.83203125,42.8466796875,
00:00:03.4895,28.9306640625,33.69140625,25.634765625,25.2685546875,
00:00:03.4916,27.83203125,29.6630859375,28.1982421875,16.4794921875,
00:00:03.4936,24.169921875,26.7333984375,35.15625,26.3671875,
00:00:03.4957,24.90234375,28.9306640625,32.958984375,42.8466796875,
00:00:03.4978,20.5078125,28.1982421875,29.6630859375,46.5087890625,
00:00:03.4999,10.25390625,24.169921875,26.3671875,56.7626953125,
00:00:03.502,14.6484375,29.296875,24.5361328125,55.2978515625,
00:00:03.5041,21.6064453125,34.423828125,24.90234375,39.1845703125,
00:00:03.5061,20.1416015625,31.494140625,28.564453125,28.9306640625,
00:00:03.5082,20.1416015625,28.1982421875,34.423828125,33.69140625,
00:00:03.5103,20.5078125,29.6630859375,31.8603515625,30.029296875,
00:00:03.5124,19.04296875,30.76171875,27.83203125,36.62109375,
00:00:03.5145,19.04296875,32.958984375,28.9306640625,54.19921875,
00:00:03.5166,19.4091796875,36.2548828125,32.5927734375,69.580078125,
00:00:03.5186,24.169921875,39.1845703125,30.029296875,69.2138671875,
00:00:03.5207,24.5361328125,39.1845703125,23.8037109375,39.55078125,
00:00:03.5228,26.3671875,36.62109375,19.4091796875,28.1982421875,
00:00:03.5249,28.9306640625,36.2548828125,18.310546875,10.986328125,
00:00:03.527,31.8603515625,37.353515625,21.97265625,16.845703125,
00:00:03.5291,37.353515625,43.9453125,20.8740234375,36.62109375,
00:00:03.5311,27.83203125,36.2548828125,20.1416015625,39.9169921875,
00:00:03.5332,20.1416015625,32.2265625,23.8037109375,49.4384765625,
00:00:03.5353,19.04296875,31.1279296875,24.169921875,53.8330078125,
00:00:03.5374,18.6767578125,26.3671875,19.4091796875,36.2548828125,
00:00:03.5395,19.4091796875,23.0712890625,22.3388671875,22.3388671875,
00:00:03.5416,24.90234375,26.7333984375,26.7333984375,24.5361328125,
00:00:03.5436,21.240234375,24.90234375,26.3671875,22.705078125,
00:00:03.5457,13.916015625,21.6064453125,24.169921875,33.69140625,
00:00:03.5478,6.591796875,18.6767578125,26.0009765625,55.2978515625,
00:00:03.5499,6.9580078125,21.6064453125,28.9306640625,54.5654296875,
00:00:03.552,13.5498046875,27.83203125,28.9306640625,46.142578125,
00:00:03.5541,22.705078125,38.0859375,26.7333984375,31.8603515625,
00:00:03.5561,29.6630859375,40.283203125,21.97265625,18.310546875,
00:00:03.5582,33.3251953125,39.55078125,21.240234375,21.97265625,
00:00:03.5603,42.48046875,47.9736328125,30.76171875,24.5361328125,
00:00:03.5624,35.15625,43.9453125,38.818359375,44.677734375,
00:00:03.5645,29.6630859375,43.212890625,38.818359375,54.5654296875,
00:00:03.5666,30.76171875,42.8466796875,31.1279296875,65.5517578125,
00:00:03.5686,28.9306640625,39.1845703125,26.0009765625,58.59375,
00:00:03.5707,27.4658203125,34.423828125,24.5361328125,43.9453125,
00:00:03.5728,26.7333984375,31.8603515625,25.2685546875,30.76171875,
00:00:03.5749,28.9306640625,33.69140625,24.169921875,13.5498046875,
00:00:03.577,35.888671875,39.1845703125,20.5078125,17.578125,
00:00:03.5791,40.283203125,43.9453125,21.6064453125,24.5361328125,
00:00:03.5811,34.423828125,38.4521484375,28.564453125,39.55078125,
00:00:03.5832,36.2548828125,41.015625,22.3388671875,45.41015625,
00:00:03.5853,34.7900390625,40.283203125,22.705078125,34.423828125,
00:00:03.5874,30.029296875,32.5927734375,24.169921875,24.169921875,
00:00:03.5895,31.1279296875,32.5927734375,17.578125,3.662109375,
00:00:03.5916,35.5224609375,35.5224609375,19.04296875,5.859375,
00:00:03.5936,40.6494140625,41.015625,21.240234375,21.6064453125,
00:00:03.5957,39.9169921875,42.48046875,23.0712890625,31.1279296875,
00:00:03.5978,35.888671875,41.748046875,25.634765625,30.029296875,
00:00:03.5999,32.958984375,43.212890625,30.76171875,38.4521484375,
00:00:03.602,37.353515625,46.5087890625,32.2265625,38.4521484375,
00:00:03.6041,39.1845703125,46.5087890625,33.69140625,30.76171875,
00:00:03.6061,39.9169921875,43.212890625,34.423828125,13.18359375,
00:00:03.6082,38.4521484375,42.1142578125,25.634765625,13.5498046875,
00:00:03.6103,35.15625,41.015625,27.83203125,28.564453125,
00:00:03.6124,31.494140625,38.4521484375,29.6630859375,34.423828125,
00:00:03.6145,24.90234375,32.958984375,26.0009765625,24.169921875,
00:00:03.6166,20.8740234375,29.6630859375,26.0009765625,31.494140625,
00:00:03.6186,26.3671875,35.15625,30.76171875,36.62109375,
00:00:03.6207,29.6630859375,37.353515625,28.564453125,23.0712890625,
00:00:03.6228,28.564453125,32.958984375,23.0712890625,9.8876953125,
00:00:03.6249,26.3671875,26.7333984375,23.8037109375,4.0283203125,
00:00:03.627,24.169921875,25.2685546875,30.76171875,6.9580078125,
00:00:03.6291,21.97265625,21.97265625,35.5224609375,18.6767578125,
00:00:03.6311,22.3388671875,24.169921875,31.1279296875,32.2265625,
00:00:03.6332,28.9306640625,35.888671875,31.1279296875,34.423828125,
00:00:03.6353,28.9306640625,37.353515625,35.5224609375,25.634765625,
00:00:03.6374,27.83203125,32.5927734375,33.69140625,19.04296875,
00:00:03.6395,22.705078125,25.2685546875,36.9873046875,17.9443359375,
00:00:03.6416,21.97265625,21.97265625,32.5927734375,10.25390625,
00:00:03.6436,21.6064453125,24.5361328125,31.1279296875,5.126953125,
00:00:03.6457,21.6064453125,25.2685546875,32.958984375,19.4091796875,
00:00:03.6478,17.578125,21.97265625,38.0859375,36.9873046875,
00:00:03.6499,11.3525390625,17.2119140625,38.4521484375,41.015625,
00:00:03.652,10.6201171875,19.4091796875,28.9306640625,30.76171875,
00:00:03.6541,15.0146484375,25.2685546875,13.916015625,12.8173828125,
00:00:03.6561,21.6064453125,30.029296875,14.2822265625,-2.197265625,
00:00:03.6582,22.705078125,27.4658203125,15.0146484375,-7.32421875,
00:00:03.6603,18.6767578125,20.8740234375,19.04296875,-2.197265625,
00:00:03.6624,21.240234375,22.705078125,20.8740234375,5.859375,
00:00:03.6645,19.4091796875,24.90234375,24.5361328125,26.0009765625,
00:00:03.6666,21.97265625,30.029296875,24.5361328125,27.83203125,
00:00:03.6686,26.0009765625,34.7900390625,19.4091796875,21.6064453125,
00:00:03.6707,28.1982421875,35.5224609375,18.310546875,10.6201171875,
00:00:03.6728,29.6630859375,33.3251953125,15.0146484375,0.732421875,
00:00:03.6749,26.0009765625,31.1279296875,14.6484375,1.46484375,
00:00:03.677,28.1982421875,35.15625,12.0849609375,0.732421875,
